time (s)	coil I (A)	last det (V)	int current (uC)
5599.378938	0.882865	0.407704	390.226318
5599.379816	1.320619	0.407704	1549.729736
5599.380880	1.331470	0.407704	2966.413574
5599.381783	1.303143	0.407704	4143.151855
5599.382656	1.275092	0.407704	5256.306641
5599.383543	1.246501	0.407704	6361.953125
5599.384599	1.215491	0.407704	7645.511230
5599.385498	0.931967	0.407704	8483.349609
5599.386365	0.138263	0.407704	8603.223633
5599.387389	0.083815	0.407704	8689.049805
5599.388280	0.083844	0.407704	8763.754883
5599.389185	0.083807	0.407704	8839.600586
5599.390059	0.083917	0.407704	8912.944336
5599.391101	0.083837	0.407704	9000.301758
5599.391995	0.083796	0.407704	9075.215820
5599.392915	0.083866	0.407704	9152.372070
5599.393775	0.083855	0.407704	9224.487305
5599.394777	0.083906	0.407704	9308.561523
5600.419257	0.850591	0.403168	357.248108
5600.420300	1.327687	0.403168	1742.025391
5600.421274	1.330221	0.403168	3037.660645
5600.422153	1.302689	0.403168	4182.724609
5600.423079	1.272880	0.403168	5361.411133
5600.424142	1.240441	0.403168	6679.999512
5600.425039	1.212990	0.403168	7768.051270
5600.425914	0.865565	0.403168	8525.420898
5600.426980	0.101927	0.403168	8634.075195
5600.427928	0.083639	0.403168	8713.365234
5600.428799	0.083796	0.403168	8786.351562
5600.429697	0.083855	0.403168	8861.653320
5600.430782	0.083796	0.403168	8952.572266
5600.431651	0.083745	0.403168	9025.346680
5600.432516	0.083833	0.403168	9097.862305
5600.433533	0.083950	0.403168	9183.239258
5600.434500	0.083804	0.403168	9264.277344
5600.435379	0.083844	0.403168	9337.976562
5601.443872	0.931875	0.418149	480.847473
5601.444775	1.327504	0.418149	1679.583252
5601.445638	1.332726	0.418149	2829.725586
5601.446736	1.300466	0.418149	4257.637695
5601.447708	1.269009	0.418149	5491.114258
5601.448586	1.241949	0.418149	6581.545898
5601.449577	1.212045	0.418149	7782.682129
5601.450653	0.615696	0.418149	8445.170898
5601.451545	0.091589	0.418149	8526.868164
5601.452419	0.083734	0.418149	8600.051758
5601.453527	0.083881	0.418149	8692.991211
5601.454479	0.083829	0.418149	8772.796875
5601.455349	0.083804	0.418149	8845.706055
5601.456387	0.083972	0.418149	8932.869141
5601.457423	0.083800	0.418149	9019.685547
5601.458316	0.083822	0.418149	9094.539062
5601.459258	0.083789	0.418149	9173.468750
5601.460307	0.083815	0.418149	9261.390625
5602.481636	0.897140	0.393351	412.684357
5602.482562	1.325083	0.393351	1639.711182
5602.483453	1.334191	0.393351	2828.475098
5602.484363	1.306996	0.393351	4017.841309
5602.485334	1.275981	0.393351	5256.819336
5602.486263	1.246805	0.393351	6415.101562
5602.487133	1.220087	0.393351	7476.577148
5602.488104	1.007933	0.393351	8455.280273
5602.489050	0.147784	0.393351	8595.083984
5602.489957	0.083719	0.393351	8671.017578
5602.490815	0.083837	0.393351	8742.949219
5602.491765	0.083855	0.393351	8822.611328
5602.492723	0.083822	0.393351	8902.913086
5602.493617	0.083837	0.393351	8977.863281
5602.494529	0.083782	0.393351	9054.272461
5602.495487	0.083881	0.393351	9134.629883
5602.496408	0.083811	0.393351	9211.820312
5602.497282	0.083947	0.393351	9285.189453
5603.509689	0.847559	0.409536	355.974609
5603.510635	1.320458	0.409536	1605.127686
5603.511568	1.333367	0.409536	2849.158691
5603.512491	1.305765	0.409536	4054.380127
5603.513360	1.277457	0.409536	5164.490234
5603.514344	1.247490	0.409536	6392.020508
5603.515289	1.218252	0.409536	7543.268555
5603.516207	1.002114	0.409536	8463.208984
5603.517073	0.159968	0.409536	8601.741211
5603.518052	0.083778	0.409536	8683.759766
5603.518981	0.083800	0.409536	8761.610352
5603.519840	0.083785	0.409536	8833.582031
5603.520833	0.083771	0.409536	8916.766602
5603.521759	0.083778	0.409536	8994.344727
5603.522681	0.083767	0.409536	9071.578125
5603.523544	0.083844	0.409536	9143.935547
5603.524548	0.083848	0.409536	9228.118164
5603.525475	0.083866	0.409536	9305.862305
5604.539948	0.946234	0.393065	495.826691
5604.540899	1.331041	0.393065	1761.646973
5604.541827	1.330756	0.393065	2996.588135
5604.542705	1.303418	0.393065	4140.989258
5604.543717	1.271459	0.393065	5427.705566
5604.544623	1.242957	0.393065	6553.824219
5604.545499	1.216523	0.393065	7619.499023
5604.546421	0.896364	0.393065	8445.946289
5604.547429	0.111167	0.393065	8558.002930
5604.548346	0.083712	0.393065	8634.766602
5604.549211	0.083815	0.393065	8707.266602
5604.550229	0.083815	0.393065	8792.589844
5604.551121	0.083804	0.393065	8867.342773
5604.552025	0.083789	0.393065	8943.087891
5604.552900	0.083851	0.393065	9016.458008
5604.553930	0.083782	0.393065	9102.752930
5604.554828	0.083866	0.393065	9178.064453
5604.555704	0.083888	0.393065	9251.549805
5605.577676	0.867656	0.396545	379.165771
5605.578547	1.318312	0.396545	1527.415405
5605.579652	1.330397	0.396545	2997.503662
5605.580621	1.300334	0.396545	4257.527832
5605.581499	1.272422	0.396545	5374.714355
5605.582524	1.241008	0.396545	6646.748047
5605.583589	1.209379	0.396545	7934.736328
5605.584478	0.682650	0.396545	8541.612305
5605.585370	0.097705	0.396545	8628.765625
5605.586461	0.083866	0.396545	8720.263672
5605.587408	0.083837	0.396545	8799.657227
5605.588266	0.083829	0.396545	8871.583008
5605.589289	0.083888	0.396545	8957.400391
5605.590328	0.083785	0.396545	9044.453125
5605.591220	0.083936	0.396545	9119.323242
5605.592149	0.083862	0.396545	9197.231445
5605.593217	0.083910	0.396545	9286.847656
5605.594163	0.083822	0.396545	9366.143555
5606.598620	0.879895	0.407893	392.433197
5606.599563	1.323717	0.407893	1640.698486
5606.600439	1.334106	0.407893	2809.375732
5606.601358	1.306663	0.407893	4010.198730
5606.602307	1.276212	0.407893	5221.324219
5606.603234	1.247135	0.407893	6377.418457
5606.604114	1.220332	0.407893	7451.310547
5606.605049	1.029950	0.407893	8414.313477
5606.606004	0.149971	0.407893	8557.535156
5606.606894	0.083690	0.407893	8632.019531
5606.607916	0.083716	0.407893	8717.577148
5606.608875	0.083701	0.407893	8797.846680
5606.609803	0.083782	0.407893	8875.595703
5606.610667	0.083785	0.407893	8947.986328
5606.611640	0.083796	0.407893	9029.520508
5606.612591	0.083767	0.407893	9109.182617
5606.613468	0.083778	0.407893	9182.656250
5606.614354	0.083785	0.407893	9256.889648
5607.643061	0.846244	0.416026	355.422424
5607.644034	1.322146	0.416026	1641.870605
5607.644967	1.332887	0.416026	2885.454102
5607.645895	1.305004	0.416026	4096.497559
5607.646764	1.276615	0.416026	5205.875977
5607.647742	1.246135	0.416026	6424.596191
5607.648683	1.217758	0.416026	7570.505859
5607.649560	1.014518	0.416026	8460.238281
5607.650605	0.117832	0.416026	8583.373047
5607.651549	0.083738	0.416026	8662.421875
5607.652478	0.083771	0.416026	8740.245117
5607.653356	0.083712	0.416026	8813.744141
5607.654321	0.083730	0.416026	8894.543945
5607.655269	0.083705	0.416026	8973.896484
5607.656164	0.083752	0.416026	9048.854492
5607.657080	0.083738	0.416026	9125.558594
5607.658000	0.083760	0.416026	9202.617187
5607.658951	0.083785	0.416026	9282.296875
5608.662456	0.846929	0.416349	356.556976
5608.663422	1.319967	0.416349	1631.645142
5608.664331	1.333132	0.416349	2843.462402
5608.665250	1.305883	0.416349	4043.568359
5608.666133	1.277157	0.416349	5171.297852
5608.667109	1.246513	0.416349	6387.894043
5608.668055	1.218168	0.416349	7540.280762
5608.668950	1.021871	0.416349	8454.855469
5608.669964	0.149572	0.416349	8606.521484
5608.670859	0.083734	0.416349	8681.463867
5608.671773	0.083800	0.416349	8758.056641
5608.672641	0.083771	0.416349	8830.769531
5608.673590	0.083870	0.416349	8910.361328
5608.674521	0.083822	0.416349	8988.399414
5608.675440	0.083870	0.416349	9065.475586
5608.676328	0.083866	0.416349	9139.948242
5608.677302	0.083844	0.416349	9221.612305
5608.678232	0.083837	0.416349	9299.580078
5609.704383	0.858395	0.413158	370.826569
5609.705256	1.316924	0.413158	1520.500977
5609.706252	1.333151	0.413158	2848.318848
5609.707194	1.304659	0.413158	4077.308105
5609.708117	1.275366	0.413158	5254.471191
5609.708986	1.247582	0.413158	6338.619629
5609.710039	1.216406	0.413158	7619.495117
5609.710938	0.955107	0.413158	8478.136719
5609.711805	0.143965	0.413158	8602.954102
5609.712765	0.083763	0.413158	8683.367187
5609.713718	0.083785	0.413158	8763.214844
5609.714621	0.083730	0.413158	8838.823242
5609.715500	0.083789	0.413158	8912.473633
5609.716530	0.083694	0.413158	8998.678711
5609.717431	0.083676	0.413158	9074.070312
5609.718308	0.083745	0.413158	9147.514648
5609.719204	0.083800	0.413158	9222.599609
5609.720230	0.083782	0.413158	9308.559570
5610.731447	0.846482	0.397621	357.215363
5610.732447	1.323182	0.397621	1680.397705
5610.733435	1.330126	0.397621	2994.562012
5610.734373	1.301312	0.397621	4215.192871
5610.735243	1.272242	0.397621	5322.043945
5610.736356	1.239580	0.397621	6701.696289
5610.737251	1.212209	0.397621	7786.624023
5610.738122	0.846563	0.397621	8523.980469
5610.739206	0.099419	0.397621	8631.750977
5610.740161	0.083650	0.397621	8711.636719
5610.741031	0.083778	0.397621	8784.523437
5610.741889	0.083844	0.397621	8856.461914
5610.743028	0.083760	0.397621	8951.864258
5610.743902	0.083709	0.397621	9025.025391
5610.744769	0.083778	0.397621	9097.661133
5610.745829	0.083921	0.397621	9186.617187
5610.746793	0.083701	0.397621	9267.304687
5610.747722	0.083800	0.397621	9345.155273
5611.763651	0.857443	0.403285	371.272644
5611.764516	1.316752	0.403285	1510.262939
5611.765608	1.330642	0.403285	2963.324219
5611.766609	1.299998	0.403285	4264.622070
5611.767505	1.271246	0.403285	5403.658691
5611.768520	1.240371	0.403285	6662.635254
5611.769571	1.208829	0.403285	7933.114746
5611.770483	0.649094	0.403285	8525.088867
5611.771349	0.095618	0.403285	8607.893555
5611.772443	0.083771	0.403285	8699.539062
5611.773399	0.083723	0.403285	8779.578125
5611.774259	0.083796	0.403285	8851.642578
5611.775330	0.083833	0.403285	8941.427734
5611.776367	0.083774	0.403285	9028.301758
5611.777252	0.083785	0.403285	9102.452148
5611.778178	0.083855	0.403285	9180.101562
5611.779244	0.083866	0.403285	9269.502930
5611.780184	0.083734	0.403285	9348.212891
5612.798438	0.880675	0.386885	405.110504
5612.799320	1.321260	0.386885	1570.461548
5612.800241	1.334308	0.386885	2799.358887
5612.801184	1.306172	0.386885	4031.079102
5612.802111	1.276022	0.386885	5213.951172
5612.802994	1.248538	0.386885	6316.410156
5612.803917	1.220010	0.386885	7442.479492
5612.804889	0.999869	0.386885	8414.352539
5612.805816	0.149612	0.386885	8553.042969
5612.806688	0.083745	0.386885	8626.068359
5612.807668	0.083763	0.386885	8708.156250
5612.808630	0.083862	0.386885	8788.832031
5612.809516	0.083774	0.386885	8863.056641
5612.810401	0.083804	0.386885	8937.222656
5612.811357	0.083789	0.386885	9017.325195
5612.812309	0.083796	0.386885	9097.099609
5612.813182	0.083829	0.386885	9170.282227
5612.814093	0.083785	0.386885	9246.610352
5613.822395	0.859698	0.406108	363.652466
5613.823383	1.325486	0.406108	1673.232422
5613.824310	1.332407	0.406108	2908.374023
5613.825194	1.305575	0.406108	4062.502197
5613.826154	1.275743	0.406108	5287.215820
5613.827090	1.245615	0.406108	6453.111816
5613.828002	1.217300	0.406108	7563.289062
5613.828898	1.009325	0.406108	8467.644531
5613.829825	0.150538	0.406108	8607.193359
5613.830787	0.083573	0.406108	8687.590820
5613.831709	0.083763	0.406108	8764.820312
5613.832582	0.083763	0.406108	8837.945312
5613.833552	0.083771	0.406108	8919.203125
5613.834473	0.083807	0.406108	8996.389648
5613.835410	0.083771	0.406108	9074.882812
5613.836271	0.083804	0.406108	9147.038086
5613.837232	0.083844	0.406108	9227.612305
5613.838150	0.083789	0.406108	9304.530273
5614.864831	0.853813	0.406366	364.578339
5614.865827	1.323340	0.406366	1682.624878
5614.866750	1.331777	0.406366	2911.855469
5614.867674	1.303821	0.406366	4116.585937
5614.868540	1.275102	0.406366	5220.824707
5614.869598	1.243158	0.406366	6536.085937
5614.870484	1.216304	0.406366	7613.730957
5614.871355	0.990212	0.406366	8476.206055
5614.872363	0.145499	0.406366	8622.869141
5614.873271	0.083705	0.406366	8698.873047
5614.874185	0.083833	0.406366	8775.496094
5614.875061	0.083815	0.406366	8848.917969
5614.876093	0.083804	0.406366	8935.403320
5614.876989	0.083730	0.406366	9010.425781
5614.877863	0.083796	0.406366	9083.664062
5614.878810	0.083818	0.406366	9163.040039
5614.879804	0.083778	0.406366	9246.315430
5614.880726	0.083844	0.406366	9323.619141
5615.884863	0.960557	0.419249	532.148315
5615.885915	1.334667	0.419249	1936.217773
5615.886805	1.328122	0.419249	3118.246826
5615.887725	1.298807	0.419249	4313.149414
5615.888810	1.264592	0.419249	5685.231934
5615.889765	1.235156	0.419249	6864.806152
5615.890632	1.208837	0.419249	7912.867676
5615.891684	0.540505	0.419249	8481.479492
5615.892700	0.086576	0.419249	8569.440430
5615.893581	0.083741	0.419249	8643.216797
5615.894549	0.083800	0.419249	8724.334961
5615.895592	0.083822	0.419249	8811.761719
5615.896515	0.083785	0.419249	8889.095703
5615.897372	0.083851	0.419249	8960.956055
5615.898409	0.083899	0.419249	9047.958984
5615.899420	0.083822	0.419249	9132.703125
5615.900311	0.083800	0.419249	9207.369141
5615.901278	0.083811	0.419249	9288.414062
5616.929752	0.873204	0.392062	387.702728
5616.930615	1.318546	0.392062	1525.608032
5616.931659	1.331265	0.392062	2915.448242
5616.932692	1.299855	0.392062	4258.198242
5616.933578	1.271356	0.392062	5384.620117
5616.934554	1.241140	0.392062	6595.972656
5616.935620	1.209320	0.392062	7885.107910
5616.936539	0.679739	0.392062	8509.788086
5616.937408	0.097255	0.392062	8594.302734
5616.938502	0.083807	0.392062	8685.988281
5616.939501	0.083756	0.392062	8769.660156
5616.940397	0.083782	0.392062	8844.728516
5616.941380	0.083870	0.392062	8927.171875
5616.942434	0.083862	0.392062	9015.562500
5616.943325	0.083774	0.392062	9090.205078
5616.944209	0.083793	0.392062	9164.278320
5616.945314	0.083862	0.392062	9256.946289
5616.946276	0.083778	0.392062	9337.541016
5617.952694	0.857948	0.404868	361.196106
5617.953655	1.323146	0.404868	1632.739258
5617.954572	1.332905	0.404868	2855.013428
5617.955461	1.306626	0.404868	4016.604004
5617.956374	1.277007	0.404868	5182.511230
5617.957331	1.247267	0.404868	6376.145508
5617.958269	1.218933	0.404868	7519.504883
5617.959141	1.045624	0.404868	8431.289062
5617.960125	0.158394	0.404868	8587.148437
5617.961073	0.083679	0.404868	8666.476562
5617.961983	0.083793	0.404868	8742.727539
5617.962844	0.083789	0.404868	8814.870117
5617.963816	0.083818	0.404868	8896.341797
5617.964743	0.083840	0.404868	8974.061523
5617.965631	0.083807	0.404868	9048.482422
5617.966543	0.083730	0.404868	9124.844727
5617.967494	0.083793	0.404868	9204.531250
5617.968412	0.083804	0.404868	9281.462891
5618.985487	0.887062	0.383219	452.401489
5618.986403	1.327958	0.383219	1668.810791
5618.987332	1.331660	0.383219	2905.923096
5618.988217	1.304791	0.383219	4060.663574
5618.989168	1.274224	0.383219	5272.450195
5618.990115	1.244751	0.383219	6451.229492
5618.991042	1.216948	0.383219	7579.340820
5618.991906	0.993940	0.383219	8438.105469
5618.992885	0.142610	0.383219	8577.720703
5618.993791	0.083635	0.383219	8653.494141
5618.994704	0.083789	0.383219	8729.993164
5618.995573	0.083785	0.383219	8802.802734
5618.996550	0.083774	0.383219	8884.650391
5618.997481	0.083712	0.383219	8962.585937
5618.998346	0.083851	0.383219	9035.117187
5618.999314	0.083763	0.383219	9116.200195
5619.000259	0.083771	0.383219	9195.363281
5619.001179	0.083778	0.383219	9272.439453
5620.022726	0.860237	0.383856	372.482544
5620.023641	1.321077	0.383856	1581.267822
5620.024520	1.334605	0.383856	2754.385254
5620.025571	1.304004	0.383856	4124.893555
5620.026485	1.274315	0.383856	5289.617676
5620.027370	1.246644	0.383856	6392.897949
5620.028325	1.218135	0.383856	7556.216797
5620.029319	0.917889	0.383856	8468.598633
5620.030240	0.124995	0.383856	8583.718750
5620.031105	0.083676	0.383856	8656.097656
5620.032148	0.083866	0.383856	8743.570312
5620.033020	0.083771	0.383856	8816.618164
5620.033895	0.083763	0.383856	8889.911133
5620.034779	0.083884	0.383856	8964.064453
5620.035827	0.083873	0.383856	9051.963867
5620.036717	0.083844	0.383856	9126.584961
5620.037591	0.083800	0.383856	9199.826172
5620.038576	0.083837	0.383856	9282.405273
5621.044300	0.965391	0.395087	551.238037
5621.045367	1.335062	0.395087	1975.749512
5621.046250	1.327372	0.395087	3147.818848
5621.047133	1.298540	0.395087	4294.429687
5621.048228	1.264739	0.395087	5679.318359
5621.049182	1.235295	0.395087	6857.790039
5621.050046	1.209273	0.395087	7902.601562
5621.051075	0.558933	0.395087	8477.744141
5621.052126	0.086730	0.395087	8568.897461
5621.053005	0.083727	0.395087	8642.493164
5621.053933	0.083855	0.395087	8720.310547
5621.055011	0.083774	0.395087	8810.619141
5621.055945	0.083785	0.395087	8888.875000
5621.056812	0.083796	0.395087	8961.526367
5621.057861	0.083899	0.395087	9049.536133
5621.058877	0.083855	0.395087	9134.732422
5621.059765	0.083870	0.395087	9209.208984
5621.060722	0.083899	0.395087	9289.500000
5622.087164	0.882590	0.414032	434.234436
5622.088226	1.332367	0.414032	1849.208008
5622.089174	1.327866	0.414032	3108.025146
5622.090043	1.300126	0.414032	4237.834473
5622.091100	1.266544	0.414032	5576.571777
5622.092118	1.235255	0.414032	6834.061523
5622.093018	1.208265	0.414032	7921.500488
5622.093981	0.612462	0.414032	8511.301758
5622.095032	0.087686	0.414032	8603.458984
5622.095960	0.083716	0.414032	8681.147461
5622.096823	0.083862	0.414032	8753.520508
5622.097902	0.083760	0.414032	8843.897461
5622.098882	0.083771	0.414032	8925.993164
5622.099772	0.083745	0.414032	9000.526367
5622.100769	0.083818	0.414032	9084.093750
5622.101812	0.083851	0.414032	9171.550781
5622.102707	0.083716	0.414032	9246.476562
5622.103563	0.083734	0.414032	9318.153320
5623.109104	0.898652	0.407265	431.353149
5623.110065	1.327302	0.407265	1706.890625
5623.111001	1.331078	0.407265	2952.779541
5623.111882	1.303890	0.407265	4101.506836
5623.112856	1.273129	0.407265	5341.534180
5623.113811	1.243696	0.407265	6529.264160
5623.114709	1.216073	0.407265	7621.297852
5623.115604	0.959235	0.407265	8479.812500
5623.116551	0.132235	0.407265	8605.039062
5623.117505	0.083676	0.407265	8684.865234
5623.118380	0.083785	0.407265	8758.177734
5623.119284	0.083760	0.407265	8833.896484
5623.120238	0.083800	0.407265	8913.841797
5623.121164	0.083822	0.407265	8991.460937
5623.122036	0.083870	0.407265	9064.595703
5623.123003	0.083815	0.407265	9145.644531
5623.123920	0.083778	0.407265	9222.468750
5623.124808	0.083855	0.407265	9296.931641
5624.148007	0.915765	0.408981	489.934448
5624.148972	1.331202	0.408981	1774.544800
5624.149907	1.329716	0.408981	3017.828857
5624.150780	1.302253	0.408981	4154.696289
5624.151823	1.269716	0.408981	5479.009766
5624.152707	1.242012	0.408981	6576.948242
5624.153581	1.215513	0.408981	7639.306152
5624.154539	0.834730	0.408981	8438.977539
5624.155520	0.104810	0.408981	8541.795898
5624.156443	0.083690	0.408981	8619.041992
5624.157317	0.083866	0.408981	8692.340820
5624.158342	0.083811	0.408981	8778.247070
5624.159245	0.083800	0.408981	8853.918945
5624.160114	0.083833	0.408981	8926.769531
5624.160972	0.083822	0.408981	8998.688477
5624.162030	0.083811	0.408981	9087.360352
5624.162913	0.083782	0.408981	9161.339844
5624.163785	0.083796	0.408981	9234.410156
5625.176002	0.857487	0.393443	368.719208
5625.176865	1.316257	0.393443	1504.649292
5625.177946	1.331016	0.393443	2943.477051
5625.178879	1.302587	0.393443	4158.790527
5625.179753	1.274304	0.393443	5272.532227
5625.180705	1.244780	0.393443	6457.562988
5625.181764	1.213165	0.393443	7742.305176
5625.182647	0.862438	0.393443	8503.837891
5625.183510	0.120879	0.393443	8608.156250
5625.184558	0.083760	0.393443	8695.936523
5625.185504	0.083774	0.393443	8775.187500
5625.186377	0.083844	0.393443	8848.382812
5625.187306	0.083815	0.393443	8926.247070
5625.188370	0.083833	0.393443	9015.445312
5625.189256	0.083877	0.393443	9089.760742
5625.190116	0.083837	0.393443	9161.860352
5625.191172	0.083877	0.393443	9250.434570
5625.192125	0.083811	0.393443	9330.306641
5626.207202	0.882693	0.388742	396.329102
5626.208123	1.323062	0.388742	1614.868774
5626.209001	1.334158	0.388742	2786.259277
5626.209934	1.306267	0.388742	4005.006348
5626.210905	1.275362	0.388742	5243.383301
5626.211815	1.246619	0.388742	6377.806152
5626.212696	1.219303	0.388742	7452.012207
5626.213785	0.868707	0.388742	8398.034180
5626.214840	0.104711	0.388742	8508.503906
5626.215731	0.083679	0.388742	8583.062500
5626.216616	0.083870	0.388742	8657.287109
5626.217709	0.083851	0.388742	8748.936523
5626.218674	0.083815	0.388742	8829.817383
5626.219544	0.083855	0.388742	8902.771484
5626.220574	0.083870	0.388742	8989.157227
5626.221604	0.083862	0.388742	9075.535156
5626.222497	0.083782	0.388742	9150.352539
5626.223429	0.083855	0.388742	9228.505859
5627.240894	0.851975	0.370252	362.941376
5627.241822	1.321838	0.370252	1589.607422
5627.242760	1.333059	0.370252	2840.016846
5627.243688	1.305538	0.370252	4051.556396
5627.244567	1.277109	0.370252	5174.135742
5627.245520	1.247000	0.370252	6362.526367
5627.246469	1.218292	0.370252	7518.685547
5627.247396	1.009695	0.370252	8454.672852
5627.248262	0.163286	0.370252	8596.079102
5627.249231	0.083690	0.370252	8677.174805
5627.250157	0.083829	0.370252	8754.800781
5627.251025	0.083789	0.370252	8827.529297
5627.251980	0.083796	0.370252	8907.554687
5627.252897	0.083800	0.370252	8984.399414
5627.253822	0.083877	0.370252	9061.985352
5627.254701	0.083837	0.370252	9135.677734
5627.255676	0.083793	0.370252	9217.375977
5627.256628	0.083782	0.370252	9297.135742
5628.268050	0.914506	0.393230	453.594788
5628.268927	1.323853	0.393230	1614.613525
5628.269796	1.334077	0.393230	2773.926514
5628.270835	1.302920	0.393230	4127.660156
5628.271802	1.272070	0.393230	5357.751953
5628.272684	1.244714	0.393230	6455.589844
5628.273598	1.216772	0.393230	7567.719727
5628.274679	0.806320	0.393230	8439.351562
5628.275574	0.107509	0.393230	8535.571289
5628.276438	0.083727	0.393230	8607.911133
5628.277479	0.083877	0.393230	8695.226562
5628.278453	0.083804	0.393230	8776.851562
5628.279325	0.083873	0.393230	8849.989258
5628.280201	0.083829	0.393230	8923.423828
5628.281295	0.083807	0.393230	9015.109375
5628.282177	0.083826	0.393230	9089.043945
5628.283036	0.083910	0.393230	9161.123047
5628.284102	0.083873	0.393230	9250.532227
5629.305292	0.864056	0.393629	381.048889
5629.306156	1.317568	0.393629	1519.427979
5629.307259	1.330382	0.393629	2986.839355
5629.308254	1.299441	0.393629	4279.783203
5629.309131	1.271111	0.393629	5394.547363
5629.310133	1.240045	0.393629	6637.072754
5629.311195	1.208551	0.393629	7920.553711
5629.312095	0.671803	0.393629	8525.176758
5629.312978	0.096771	0.393629	8610.625977
5629.314067	0.083730	0.393629	8701.808594
5629.315028	0.083778	0.393629	8782.319336
5629.315899	0.083811	0.393629	8855.318359
5629.316932	0.083862	0.393629	8941.948242
5629.317963	0.083844	0.393629	9028.391602
5629.318859	0.083807	0.393629	9103.483398
5629.319775	0.083829	0.393629	9180.271484
5629.320845	0.083837	0.393629	9269.976562
5629.321791	0.083785	0.393629	9349.237305
5630.328813	0.899187	0.413243	428.912201
5630.329744	1.325369	0.413243	1662.830444
5630.330671	1.332136	0.413243	2897.720703
5630.331537	1.305465	0.413243	4028.253418
5630.332507	1.275293	0.413243	5265.287598
5630.333463	1.245516	0.413243	6456.000977
5630.334361	1.218025	0.413243	7549.787109
5630.335251	0.991392	0.413243	8432.125977
5630.336203	0.141251	0.413243	8566.596680
5630.337162	0.083668	0.413243	8646.834961
5630.338053	0.083822	0.413243	8721.520508
5630.338962	0.083866	0.413243	8797.754883
5630.339918	0.083793	0.413243	8877.860352
5630.340818	0.083705	0.413243	8953.194336
5630.341723	0.083818	0.413243	9029.049805
5630.342675	0.083760	0.413243	9108.789062
5630.343605	0.083826	0.413243	9186.747070
5630.344469	0.083807	0.413243	9259.156250
5631.370680	0.864518	0.391087	363.962006
5631.371673	1.325218	0.391087	1679.903931
5631.372598	1.332096	0.391087	2912.092773
5631.373465	1.305557	0.391087	4044.010254
5631.374496	1.273015	0.391087	5356.488770
5631.375375	1.244744	0.391087	6450.618164
5631.376292	1.217347	0.391087	7566.925781
5631.377174	1.003176	0.391087	8451.727539
5631.378156	0.140123	0.391087	8589.328125
5631.379079	0.083661	0.391087	8666.546875
5631.379953	0.083815	0.391087	8739.800781
5631.381067	0.083815	0.391087	8833.169922
5631.381965	0.083818	0.391087	8908.438477
5631.382880	0.083815	0.391087	8985.128906
5631.383748	0.083789	0.391087	9057.857422
5631.384725	0.083793	0.391087	9139.722656
5631.385645	0.083730	0.391087	9216.754883
5631.386517	0.083796	0.391087	9289.825195
5632.390157	0.920559	0.409335	463.961761
5632.391157	1.331488	0.409335	1795.449829
5632.392049	1.330529	0.409335	2982.281250
5632.393041	1.300177	0.409335	4272.056641
5632.394109	1.265903	0.409335	5624.041016
5632.395021	1.237467	0.409335	6752.610840
5632.395886	1.210459	0.409335	7799.657715
5632.396991	0.576500	0.409335	8436.690430
5632.397948	0.088235	0.409335	8521.130859
5632.398821	0.083756	0.409335	8594.250000
5632.399839	0.083899	0.409335	8679.659180
5632.400888	0.083881	0.409335	8767.650391
5632.401770	0.083917	0.409335	8841.665039
5632.402637	0.083811	0.409335	8914.329102
5632.403726	0.083932	0.409335	9005.730469
5632.404680	0.083785	0.409335	9085.662109
5632.405540	0.083826	0.409335	9157.751953
5632.406603	0.083844	0.409335	9246.877930
5633.435626	0.894294	0.370788	418.529785
5633.436551	1.324922	0.370788	1644.082520
5633.437450	1.332957	0.370788	2842.410400
5633.438373	1.305462	0.370788	4047.351562
5633.439335	1.274791	0.370788	5273.700684
5633.440268	1.245465	0.370788	6435.719727
5633.441134	1.219105	0.370788	7491.464844
5633.442105	0.985635	0.370788	8448.516602
5633.443047	0.139581	0.370788	8580.001953
5633.443963	0.083701	0.370788	8656.671875
5633.444825	0.083774	0.370788	8728.885742
5633.445772	0.083756	0.370788	8808.203125
5633.446723	0.083727	0.370788	8887.827148
5633.447617	0.083815	0.370788	8962.757812
5633.448521	0.083767	0.370788	9038.483398
5633.449482	0.083855	0.370788	9119.068359
5633.450394	0.083745	0.370788	9195.444336
5633.451281	0.083771	0.370788	9269.749023
5634.453433	0.851393	0.395148	359.287750
5634.454396	1.324643	0.395148	1634.919434
5634.455334	1.332125	0.395148	2884.452881
5634.456217	1.305348	0.395148	4037.075195
5634.457080	1.276458	0.395148	5138.658203
5634.458095	1.246033	0.395148	6403.381348
5634.459025	1.217948	0.395148	7536.073242
5634.459910	1.036432	0.395148	8453.315430
5634.460839	0.169131	0.395148	8610.438477
5634.461792	0.083632	0.395148	8690.139648
5634.462657	0.083727	0.395148	8762.563477
5634.463529	0.083738	0.395148	8835.583008
5634.464548	0.083763	0.395148	8920.937500
5634.465471	0.083727	0.395148	8998.217773
5634.466354	0.083796	0.395148	9072.209961
5634.467277	0.083796	0.395148	9149.553711
5634.468223	0.083749	0.395148	9228.780273
5634.469145	0.083738	0.395148	9305.986328
5635.498428	0.853564	0.362961	362.764893
5635.499292	1.316030	0.362961	1499.815063
5635.500405	1.330393	0.362961	2980.542480
5635.501332	1.301528	0.362961	4187.059082
5635.502216	1.273250	0.362961	5312.611816
5635.503213	1.242880	0.362961	6551.762695
5635.504215	1.212198	0.362961	7766.385742
5635.505102	0.840934	0.362961	8512.293945
5635.505959	0.117158	0.362961	8612.698242
5635.507064	0.083840	0.362961	8705.341797
5635.507966	0.083767	0.362961	8780.899414
5635.508832	0.083910	0.362961	8853.565430
5635.509816	0.083862	0.362961	8936.085937
5635.510840	0.083815	0.362961	9021.912109
5635.511735	0.083793	0.362961	9096.906250
5635.512599	0.083862	0.362961	9169.363281
5635.513675	0.083881	0.362961	9259.619141
5635.514610	0.083844	0.362961	9338.013672
5636.517318	0.860830	0.383179	367.574432
5636.518244	1.318096	0.383179	1588.131104
5636.519185	1.332989	0.383179	2842.474121
5636.520109	1.305333	0.383179	4048.602051
5636.520973	1.277106	0.383179	5152.021484
5636.521904	1.247794	0.383179	6313.717773
5636.522860	1.218614	0.383179	7478.713379
5636.523798	1.012174	0.383179	8428.132812
5636.524685	0.161788	0.383179	8571.638672
5636.525663	0.083687	0.383179	8653.484375
5636.526609	0.083749	0.383179	8732.710937
5636.527502	0.083800	0.383179	8807.543945
5636.528405	0.083804	0.383179	8883.218750
5636.529336	0.083793	0.383179	8961.229492
5636.530284	0.083771	0.383179	9040.644531
5636.531160	0.083892	0.383179	9114.133789
5636.532087	0.083811	0.383179	9191.826172
5636.533023	0.083716	0.383179	9270.184570
5637.560251	0.863533	0.362820	366.137878
5637.561236	1.324288	0.362820	1670.561768
5637.562164	1.331884	0.362820	2906.549805
5637.563041	1.305198	0.362820	4051.208252
5637.563958	1.275293	0.362820	5220.651855
5637.564922	1.245407	0.362820	6421.223633
5637.565848	1.217534	0.362820	7548.660156
5637.566731	1.014847	0.362820	8444.770508
5637.567705	0.148572	0.362820	8589.479492
5637.568628	0.083617	0.362820	8666.658203
5637.569543	0.083698	0.362820	8743.241211
5637.570405	0.083694	0.362820	8815.385742
5637.571381	0.083774	0.362820	8897.149414
5637.572334	0.083690	0.362820	8976.906250
5637.573219	0.083694	0.362820	9050.975586
5637.574144	0.083730	0.362820	9128.426758
5637.575073	0.083730	0.362820	9206.211914
5637.576001	0.083719	0.362820	9283.903320
5638.580255	0.919845	0.386084	470.040802
5638.581133	1.324413	0.386084	1632.875244
5638.581995	1.333524	0.386084	2782.373047
5638.583068	1.301587	0.386084	4178.975586
5638.584034	1.270415	0.386084	5406.196289
5638.584916	1.243026	0.386084	6502.545410
5638.585788	1.215340	0.386084	7562.322266
5638.586931	0.738647	0.386084	8406.596680
5638.587825	0.099664	0.386084	8495.696289
5638.588693	0.083621	0.386084	8568.279297
5638.589724	0.083793	0.386084	8654.669922
5638.590692	0.083701	0.386084	8735.692383
5638.591568	0.083796	0.386084	8809.097656
5638.592427	0.083785	0.386084	8881.069336
5638.593525	0.083716	0.386084	8972.989258
5638.594422	0.083712	0.386084	9048.079102
5638.595290	0.083796	0.386084	9120.814453
5638.596305	0.083899	0.386084	9205.971680
5639.623635	0.873428	0.370317	382.561340
5639.624501	1.317784	0.370317	1523.762695
5639.625496	1.332425	0.370317	2849.525879
5639.626467	1.303784	0.370317	4115.500488
5639.627348	1.275117	0.370317	5238.878906
5639.628254	1.246458	0.370317	6368.169434
5639.629219	1.217530	0.370317	7543.086426
5639.630151	0.970474	0.370317	8447.567383
5639.631034	0.147261	0.370317	8577.598633
5639.631992	0.083657	0.370317	8657.742187
5639.632928	0.083771	0.370317	8736.151367
5639.633836	0.083844	0.370317	8812.281250
5639.634697	0.083752	0.370317	8884.392578
5639.635678	0.083771	0.370317	8966.571289
5639.636602	0.083826	0.370317	9044.026367
5639.637465	0.083837	0.370317	9116.376953
5639.638437	0.083807	0.370317	9197.837891
5639.639352	0.083793	0.370317	9274.507812
5640.641514	0.908386	0.392529	417.857666
5640.642446	1.324486	0.392529	1652.278687
5640.643322	1.333231	0.392529	2820.189209
5640.644242	1.305311	0.392529	4021.075684
5640.645209	1.274315	0.392529	5253.338379
5640.646146	1.245483	0.392529	6420.356445
5640.647031	1.218545	0.392529	7498.768555
5640.648001	0.975157	0.392529	8444.670898
5640.648939	0.135710	0.392529	8571.967773
5640.649816	0.083723	0.392529	8645.392578
5640.650746	0.083752	0.392529	8723.282227
5640.651708	0.083815	0.392529	8803.912109
5640.652635	0.083782	0.392529	8881.578125
5640.653501	0.083829	0.392529	8954.174805
5640.654472	0.083848	0.392529	9035.590820
5640.655400	0.083807	0.392529	9113.364258
5640.656287	0.083837	0.392529	9187.727539
5640.657161	0.083749	0.392529	9260.923828
5641.688013	0.867828	0.372053	380.108826
5641.688889	1.318308	0.372053	1534.946777
5641.689919	1.332103	0.372053	2907.013184
5641.690825	1.304561	0.372053	4088.945068
5641.691747	1.274809	0.372053	5264.319336
5641.692613	1.247476	0.372053	6344.633301
5641.693638	1.216465	0.372053	7591.509766
5641.694564	0.941356	0.372053	8463.205078
5641.695439	0.139479	0.372053	8585.249023
5641.696425	0.083785	0.372053	8667.861328
5641.697338	0.083800	0.372053	8744.371094
5641.698261	0.083844	0.372053	8821.758789
5641.699143	0.083818	0.372053	8895.686523
5641.700104	0.083807	0.372053	8976.225586
5641.701037	0.083800	0.372053	9054.411133
5641.701960	0.083811	0.372053	9131.768555
5641.702825	0.083807	0.372053	9204.261719
5641.703800	0.083870	0.372053	9286.034180
5642.705336	0.872772	0.392452	370.055420
5642.706446	1.330906	0.392452	1847.360718
5642.707353	1.328958	0.392452	3052.725098
5642.708234	1.301755	0.392452	4199.571289
5642.709249	1.269672	0.392452	5488.288086
5642.710244	1.238357	0.392452	6720.453125
5642.711141	1.211393	0.392452	7807.072266
5642.712013	0.792440	0.392452	8498.080078
5642.713122	0.093717	0.392452	8602.012695
5642.714024	0.083668	0.392452	8677.481445
5642.714900	0.083778	0.392452	8750.871094
5642.715915	0.083815	0.392452	8835.943359
5642.716910	0.083749	0.392452	8919.273437
5642.717790	0.083749	0.392452	8992.972656
5642.718650	0.083793	0.392452	9065.034180
5642.719755	0.083760	0.392452	9157.588867
5642.720653	0.083811	0.392452	9232.851562
5642.721521	0.083749	0.392452	9305.545898
5643.749385	0.914055	0.363179	457.941681
5643.750317	1.327701	0.363179	1695.359253
5643.751187	1.332462	0.363179	2854.601318
5643.752260	1.299968	0.363179	4249.467285
5643.753277	1.267529	0.363179	5538.544434
5643.754170	1.239814	0.363179	6645.698730
5643.755133	1.211411	0.363179	7812.287598
5643.756188	0.610477	0.363179	8456.340820
5643.757110	0.090608	0.363179	8539.880859
5643.757971	0.083709	0.363179	8611.954102
5643.759037	0.083877	0.363179	8701.367187
5643.760030	0.083646	0.363179	8784.427734
5643.760910	0.083763	0.363179	8858.139648
5643.761903	0.083844	0.363179	8941.396484
5643.762956	0.083807	0.363179	9029.645508
5643.763860	0.083778	0.363179	9105.380859
5643.764716	0.083771	0.363179	9177.088867
5643.765772	0.083851	0.363179	9265.635742
5644.769232	0.869117	0.380823	380.673431
5644.770103	1.317627	0.380823	1528.326538
5644.771089	1.332711	0.380823	2842.379883
5644.772010	1.305216	0.380823	4044.483887
5644.772886	1.277003	0.380823	5163.138672
5644.773817	1.248329	0.380823	6325.333008
5644.774756	1.219435	0.380823	7470.382324
5644.775690	1.026204	0.380823	8428.856445
5644.776571	0.171383	0.380823	8579.844727
5644.777495	0.083683	0.380823	8657.167969
5644.778440	0.083807	0.380823	8736.366211
5644.779376	0.083826	0.380823	8814.827148
5644.780238	0.083840	0.380823	8887.097656
5644.781202	0.083760	0.380823	8967.841797
5644.782153	0.083698	0.380823	9047.438477
5644.783042	0.083709	0.380823	9121.855469
5644.783971	0.083789	0.380823	9199.695312
5644.784932	0.083752	0.380823	9280.181641
5645.811642	0.852715	0.355452	363.256531
5645.812509	1.316246	0.355452	1504.442139
5645.813510	1.332792	0.355452	2838.566650
5645.814444	1.305051	0.355452	4057.484619
5645.815326	1.276406	0.355452	5183.274902
5645.816263	1.248171	0.355452	6352.811523
5645.817208	1.218926	0.355452	7504.696289
5645.818142	1.003835	0.355452	8442.278320
5645.819021	0.162015	0.355452	8584.689453
5645.819950	0.083789	0.355452	8662.529297
5645.820893	0.083778	0.355452	8741.532227
5645.821789	0.083804	0.355452	8816.620117
5645.822776	0.083840	0.355452	8899.370117
5645.823690	0.083793	0.355452	8975.957031
5645.824610	0.083698	0.355452	9052.958984
5645.825493	0.083778	0.355452	9126.934570
5645.826441	0.083756	0.355452	9206.334961
5645.827386	0.083840	0.355452	9285.564453
5646.833604	0.866301	0.375111	376.841064
5646.834481	1.317448	0.375111	1532.242554
5646.835477	1.332301	0.375111	2859.214355
5646.836483	1.301858	0.375111	4168.883301
5646.837376	1.273290	0.375111	5305.931152
5646.838240	1.245231	0.375111	6381.810547
5646.839334	1.213715	0.375111	7709.614258
5646.840234	0.876017	0.375111	8498.029297
5646.841099	0.124039	0.375111	8605.323242
5646.842106	0.083844	0.375111	8689.753906
5646.843102	0.083822	0.375111	8773.240234
5646.843981	0.083760	0.375111	8846.865234
5646.844846	0.083804	0.375111	8919.355469
5646.845927	0.083789	0.375111	9009.931641
5646.846850	0.083771	0.375111	9087.251953
5646.847728	0.083760	0.375111	9160.792969
5646.848695	0.083851	0.375111	9241.876953
5646.849704	0.083774	0.375111	9326.405273
5647.871962	0.875295	0.362880	399.134705
5647.872853	1.320747	0.362880	1575.920410
5647.873722	1.334209	0.362880	2735.348145
5647.874707	1.306044	0.362880	4021.801270
5647.875657	1.275601	0.362880	5233.622070
5647.876550	1.247516	0.362880	6347.653809
5647.877483	1.219933	0.362880	7485.851074
5647.878405	0.997786	0.362880	8405.809570
5647.879324	0.155636	0.362880	8548.838867
5647.880197	0.083705	0.362880	8621.913086
5647.881174	0.083738	0.362880	8703.724609
5647.882136	0.083844	0.362880	8784.382812
5647.883025	0.083800	0.362880	8858.880859
5647.883930	0.083815	0.362880	8934.733398
5647.884883	0.083877	0.362880	9014.667969
5647.885808	0.083840	0.362880	9092.220703
5647.886676	0.083826	0.362880	9164.981445
5647.887624	0.083767	0.362880	9244.392578
5648.897995	0.873406	0.368391	385.171936
5648.898871	1.317902	0.368391	1539.653809
5648.899787	1.333938	0.368391	2761.541016
5648.900749	1.305923	0.368391	4017.838867
5648.901676	1.276194	0.368391	5200.870605
5648.902547	1.248508	0.368391	6288.321289
5648.903524	1.219783	0.368391	7480.048828
5648.904462	1.030741	0.368391	8446.883789
5648.905326	0.174122	0.368391	8597.325195
5648.906282	0.083785	0.368391	8677.423828
5648.907234	0.083818	0.368391	8757.218750
5648.908157	0.083818	0.368391	8834.583008
5648.909034	0.083789	0.368391	8908.066406
5648.909999	0.083859	0.368391	8988.990234
5648.910958	0.083859	0.368391	9069.411133
5648.911850	0.083811	0.368391	9144.170898
5648.912762	0.083785	0.368391	9220.583008
5648.913678	0.083749	0.368391	9297.296875
5649.931193	0.846819	0.363227	357.357574
5649.932181	1.320634	0.363227	1662.143433
5649.933130	1.331005	0.363227	2925.266846
5649.934055	1.303140	0.363227	4130.670898
5649.934921	1.274645	0.363227	5234.513184
5649.935958	1.243107	0.363227	6523.614746
5649.936848	1.216201	0.363227	7606.033691
5649.937721	0.988726	0.363227	8469.191406
5649.938708	0.149337	0.363227	8616.586914
5649.939670	0.083730	0.363227	8697.135742
5649.940581	0.083855	0.363227	8773.527344
5649.941449	0.083822	0.363227	8846.285156
5649.942463	0.083903	0.363227	8931.362305
5649.943361	0.083921	0.363227	9006.723633
5649.944234	0.083925	0.363227	9079.990234
5649.945111	0.083965	0.363227	9153.626953
5649.946161	0.083859	0.363227	9241.678711
5649.947060	0.083888	0.363227	9317.093750
5650.965022	0.924020	0.372863	473.098145
5650.966027	1.332078	0.372863	1811.836182
5650.966907	1.330140	0.372863	2982.359863
5650.967916	1.299558	0.372863	4293.614258
5650.968963	1.266013	0.372863	5619.129883
5650.969863	1.237852	0.372863	6733.196289
5650.970727	1.210693	0.372863	7779.235352
5650.971826	0.597664	0.372863	8436.067383
5650.972793	0.088477	0.372863	8521.624023
5650.973664	0.083767	0.372863	8594.584961
5650.974725	0.083881	0.372863	8683.582031
5650.975764	0.083785	0.372863	8770.634766
5650.976658	0.083870	0.372863	8845.614258
5650.977586	0.083892	0.372863	8923.465820
5650.978657	0.083833	0.372863	9013.250977
5650.979605	0.083811	0.372863	9092.704102
5650.980475	0.083884	0.372863	9165.683594
5650.981525	0.083917	0.372863	9253.796875
5651.990504	0.908782	0.377673	424.401062
5651.991440	1.325416	0.377673	1664.990723
5651.992325	1.332986	0.377673	2844.683105
5651.993254	1.304908	0.377673	4056.942871
5651.994218	1.274487	0.377673	5285.548828
5651.995147	1.245582	0.377673	6442.694824
5651.996016	1.218787	0.377673	7501.820312
5651.996998	0.979127	0.377673	8463.323242
5651.997917	0.137417	0.377673	8589.609375
5651.998833	0.083672	0.377673	8666.252930
5651.999711	0.083848	0.377673	8739.871094
5652.000689	0.083851	0.377673	8821.877930
5652.001619	0.083899	0.377673	8899.904297
5652.002484	0.083870	0.377673	8972.451172
5652.003462	0.083826	0.377673	9054.432617
5652.004421	0.083807	0.377673	9134.803711
5652.005306	0.083859	0.377673	9209.018555
5652.006210	0.083818	0.377673	9284.790039
5653.030337	0.853835	0.381109	367.149261
5653.031200	1.315558	0.381109	1502.475708
5653.032259	1.331558	0.381109	2912.595215
5653.033139	1.304557	0.381109	4060.605225
5653.034010	1.276571	0.381109	5172.498535
5653.034933	1.247278	0.381109	6323.735840
5653.035939	1.217380	0.381109	7548.420410
5653.036861	0.975626	0.381109	8447.947266
5653.037745	0.148575	0.381109	8579.288086
5653.038803	0.083782	0.381109	8667.928711
5653.039701	0.083862	0.381109	8743.237305
5653.040571	0.083778	0.381109	8816.124023
5653.041435	0.083829	0.381109	8888.552734
5653.042487	0.083862	0.381109	8976.775391
5653.043383	0.083848	0.381109	9051.903320
5653.044253	0.083870	0.381109	9124.870117
5653.045261	0.083903	0.381109	9209.444336
5653.046171	0.083837	0.381109	9285.735352
5654.050856	0.921361	0.386551	492.006866
5654.051924	1.333660	0.386551	1916.355347
5654.052834	1.327064	0.386551	3123.983887
5654.053701	1.298687	0.386551	4249.945312
5654.054802	1.264523	0.386551	5642.184570
5654.055770	1.234666	0.386551	6837.340820
5654.056657	1.208225	0.386551	7909.036133
5654.057682	0.556714	0.386551	8479.667969
5654.058733	0.086521	0.386551	8570.601562
5654.059631	0.083687	0.386551	8645.751953
5654.060528	0.083829	0.386551	8720.947266
5654.061615	0.083844	0.386551	8812.085937
5654.062560	0.083745	0.386551	8891.224609
5654.063422	0.083789	0.386551	8963.451172
5654.064458	0.083789	0.386551	9050.256836
5654.065469	0.083793	0.386551	9134.971680
5654.066351	0.083782	0.386551	9208.867187
5654.067271	0.083807	0.386551	9285.969727
5655.094256	0.903625	0.366361	423.800354
5655.095186	1.325479	0.366361	1656.495361
5655.096067	1.332217	0.366361	2830.178467
5655.097045	1.303605	0.366361	4105.104004
5655.098006	1.272883	0.366361	5328.344727
5655.098896	1.244912	0.366361	6436.316406
5655.099817	1.217725	0.366361	7557.840820
5655.100781	0.930341	0.366361	8454.689453
5655.101719	0.125870	0.366361	8572.755859
5655.102591	0.083657	0.366361	8645.705078
5655.103519	0.083789	0.366361	8723.460937
5655.104481	0.083866	0.366361	8804.139648
5655.105350	0.083818	0.366361	8876.977539
5655.106259	0.083741	0.366361	8953.098633
5655.107225	0.083698	0.366361	9033.950195
5655.108150	0.083698	0.366361	9111.370117
5655.109031	0.083767	0.366361	9185.168945
5655.109959	0.083723	0.366361	9262.864258
5656.114111	0.852660	0.367545	361.527802
5656.114982	1.315693	0.367545	1507.496704
5656.115958	1.332729	0.367545	2808.240723
5656.116890	1.305395	0.367545	4024.869141
5656.117779	1.276948	0.367545	5160.076172
5656.118718	1.247618	0.367545	6331.589844
5656.119677	1.218820	0.367545	7500.437988
5656.120609	1.017063	0.367545	8448.340820
5656.121475	0.167527	0.367545	8593.418945
5656.122435	0.083694	0.367545	8673.764648
5656.123341	0.083741	0.367545	8749.634766
5656.124235	0.083837	0.367545	8824.584961
5656.125332	0.083800	0.367545	8916.513672
5656.126239	0.083815	0.367545	8992.533203
5656.127151	0.083800	0.367545	9068.958984
5656.128031	0.083844	0.367545	9142.742187
5656.128987	0.083848	0.367545	9222.900391
5656.129926	0.083723	0.367545	9301.516602
5657.153464	0.847804	0.355315	357.773254
5657.154473	1.323695	0.355315	1693.381592
5657.155484	1.328635	0.355315	3036.631836
5657.156383	1.300891	0.355315	4206.132812
5657.157249	1.271854	0.355315	5307.558594
5657.158361	1.238925	0.355315	6685.242676
5657.159272	1.211429	0.355315	7788.854980
5657.160145	0.838473	0.355315	8520.841797
5657.161252	0.094871	0.355315	8625.863281
5657.162223	0.083741	0.355315	8707.175781
5657.163098	0.083818	0.355315	8780.516602
5657.163986	0.083829	0.355315	8854.957031
5657.165085	0.083877	0.355315	8947.137695
5657.165964	0.083745	0.355315	9020.750000
5657.166822	0.083840	0.355315	9092.684570
5657.167912	0.083921	0.355315	9184.158203
5657.168872	0.083844	0.355315	9264.648437
5657.169743	0.083807	0.355315	9337.644531
5658.184719	0.917102	0.356327	464.053650
5658.185632	1.326786	0.356327	1675.409180
5658.186500	1.332334	0.356327	2831.875000
5658.187594	1.299459	0.356327	4253.483398
5658.188604	1.267269	0.356327	5533.425293
5658.189506	1.239437	0.356327	6651.397949
5658.190492	1.210184	0.356327	7844.639648
5658.191554	0.572095	0.356327	8452.204102
5658.192461	0.089495	0.356327	8533.375977
5658.193323	0.083730	0.356327	8605.551758
5658.194425	0.083873	0.356327	8697.980469
5658.195388	0.083782	0.356327	8778.662109
5658.196263	0.083844	0.356327	8852.025391
5658.197387	0.083815	0.356327	8946.233398
5658.198410	0.083789	0.356327	9031.949219
5658.199293	0.083818	0.356327	9105.960937
5658.200223	0.083917	0.356327	9184.003906
5658.201273	0.083822	0.356327	9272.016602
5659.211206	0.858215	0.379046	368.174377
5659.212118	1.317136	0.379046	1569.402588
5659.213057	1.332649	0.379046	2820.759766
5659.213985	1.305374	0.379046	4032.146484
5659.214858	1.276930	0.379046	5146.906250
5659.215774	1.248003	0.379046	6290.077148
5659.216736	1.219310	0.379046	7463.053711
5659.217663	1.035674	0.379046	8423.123047
5659.218551	0.170511	0.379046	8574.537109
5659.219521	0.083709	0.379046	8655.734375
5659.220477	0.083837	0.379046	8735.881836
5659.221363	0.083826	0.379046	8810.151367
5659.222238	0.083789	0.379046	8883.466797
5659.223195	0.083749	0.379046	8963.614258
5659.224142	0.083778	0.379046	9042.952148
5659.225019	0.083756	0.379046	9116.406250
5659.225923	0.083741	0.379046	9192.108398
5659.226880	0.083741	0.379046	9272.249023
5660.252603	0.852019	0.357793	362.108093
5660.253473	1.315638	0.357793	1506.713623
5660.254463	1.332902	0.357793	2826.286133
5660.255411	1.304582	0.357793	4063.030273
5660.256339	1.275062	0.357793	5246.288086
5660.257214	1.247190	0.357793	6337.579102
5660.258258	1.216282	0.357793	7607.377441
5660.259145	0.969441	0.357793	8467.271484
5660.260014	0.149055	0.357793	8596.800781
5660.260967	0.083888	0.357793	8676.746094
5660.261932	0.083888	0.357793	8757.698242
5660.262840	0.083807	0.357793	8833.794922
5660.263719	0.083873	0.357793	8907.519531
5660.264751	0.083800	0.357793	8994.000977
5660.265647	0.083848	0.357793	9069.128906
5660.266519	0.083833	0.357793	9142.231445
5660.267396	0.083877	0.357793	9215.791992
5660.268430	0.083789	0.357793	9302.429687
5661.270040	0.904867	0.386052	469.625946
5661.271097	1.332415	0.386052	1877.988281
5661.272020	1.327181	0.386052	3102.976807
5661.272895	1.299126	0.386052	4239.711914
5661.273980	1.265017	0.386052	5612.255371
5661.274988	1.233922	0.386052	6856.048828
5661.275887	1.207211	0.386052	7941.331055
5661.276887	0.547346	0.386052	8488.677734
5661.277944	0.086470	0.386052	8580.076172
5661.278848	0.083763	0.386052	8655.797852
5661.279707	0.083796	0.386052	8727.779297
5661.280818	0.083906	0.386052	8820.999023
5661.281790	0.083859	0.386052	8902.509766
5661.282659	0.083826	0.386052	8975.354492
5661.283711	0.083881	0.386052	9063.596680
5661.284750	0.083851	0.386052	9150.717773
5661.285640	0.083804	0.386052	9225.302734
5661.286570	0.083844	0.386052	9303.277344
5662.315457	0.854854	0.366567	366.732147
5662.316411	1.320916	0.366567	1626.885620
5662.317335	1.331785	0.366567	2857.454590
5662.318267	1.304180	0.366567	4072.950195
5662.319150	1.274637	0.366567	5198.455078
5662.320252	1.241521	0.366567	6566.611328
5662.321309	1.209917	0.366567	7845.493652
5662.322211	0.744976	0.366567	8517.461914
5662.323131	0.102733	0.366567	8611.976562
5662.324210	0.083851	0.366567	8702.452148
5662.325146	0.083892	0.366567	8780.974609
5662.326014	0.083932	0.366567	8853.827148
5662.327076	0.083925	0.366567	8942.955078
5662.328097	0.083844	0.366567	9028.559570
5662.328986	0.083873	0.366567	9103.123047
5662.329956	0.083881	0.366567	9184.487305
5662.330998	0.083870	0.366567	9271.879883
5662.331926	0.083829	0.366567	9349.673828
5663.332371	0.935501	0.385677	467.750275
5663.333293	1.326273	0.385677	1690.573975
5663.334168	1.332341	0.385677	2856.372559
5663.335092	1.304052	0.385677	4061.316162
5663.336059	1.273579	0.385677	5292.867187
5663.336984	1.245004	0.385677	6444.495605
5663.337857	1.218219	0.385677	7508.000977
5663.338830	0.974982	0.385677	8456.658203
5663.339762	0.135366	0.385677	8582.819336
5663.340625	0.083756	0.385677	8655.100586
5663.341584	0.083822	0.385677	8735.486328
5663.342536	0.083756	0.385677	8815.221680
5663.343464	0.083815	0.385677	8893.001953
5663.344320	0.083822	0.385677	8964.753906
5663.345273	0.083862	0.385677	9044.674805
5663.346231	0.083793	0.385677	9124.948242
5663.347123	0.083859	0.385677	9199.750000
5663.348036	0.083778	0.385677	9276.239258
5664.379341	0.870114	0.343674	378.499390
5664.380214	1.317861	0.343674	1528.992310
5664.381253	1.331114	0.343674	2912.020020
5664.382162	1.303568	0.343674	4096.963379
5664.383045	1.275256	0.343674	5223.014648
5664.384021	1.245403	0.343674	6438.527832
5664.384981	1.215732	0.343674	7605.630859
5664.385910	0.935156	0.343674	8474.390625
5664.386780	0.137439	0.343674	8593.962891
5664.387815	0.083668	0.343674	8680.559570
5664.388695	0.083848	0.343674	8754.345703
5664.389568	0.083778	0.343674	8827.484375
5664.390494	0.083950	0.343674	8905.222656
5664.391488	0.083727	0.343674	8988.447266
5664.392405	0.083767	0.343674	9065.261719
5664.393280	0.083793	0.343674	9138.580078
5664.394337	0.083895	0.343674	9227.257812
5664.395230	0.083796	0.343674	9302.087891
5665.397765	0.916461	0.361604	449.065979
5665.398649	1.323072	0.361604	1618.662109
5665.399615	1.331594	0.361604	2904.982178
5665.400670	1.299598	0.361604	4276.058594
5665.401587	1.269587	0.361604	5440.270508
5665.402461	1.242041	0.361604	6525.814453
5665.403518	1.210697	0.361604	7805.521484
5665.404529	0.648043	0.361604	8460.693359
5665.405415	0.094567	0.361604	8544.479492
5665.406397	0.083837	0.361604	8626.806641
5665.407447	0.083895	0.361604	8714.896484
5665.408357	0.083778	0.361604	8791.134766
5665.409222	0.083844	0.361604	8863.660156
5665.410314	0.083881	0.361604	8955.257812
5665.411313	0.083778	0.361604	9038.952148
5665.412210	0.083829	0.361604	9114.147461
5665.413192	0.083903	0.361604	9196.540039
5665.414254	0.083789	0.361604	9285.524414
5666.440144	0.875570	0.338872	384.375244
5666.441009	1.317455	0.338872	1523.973633
5666.441995	1.332729	0.338872	2838.044922
5666.442932	1.304832	0.338872	4060.671875
5666.443811	1.276190	0.338872	5182.442871
5666.444727	1.248047	0.338872	6325.653809
5666.445653	1.218973	0.338872	7454.423340
5666.446611	1.001843	0.338872	8414.189453
5666.447508	0.158741	0.338872	8556.580078
5666.448419	0.083822	0.338872	8632.942383
5666.449383	0.083811	0.338872	8713.736328
5666.450310	0.083888	0.338872	8791.500000
5666.451171	0.083884	0.338872	8863.724609
5666.452139	0.083895	0.338872	8944.935547
5666.453095	0.083833	0.338872	9025.080078
5666.453978	0.083822	0.338872	9099.094727
5666.454869	0.083767	0.338872	9173.731445
5666.455798	0.083870	0.338872	9251.646484
5667.463103	0.855927	0.361068	364.624695
5667.464152	1.327804	0.361068	1757.490967
5667.465046	1.330913	0.361068	2947.327148
5667.465922	1.304209	0.361068	4089.814209
5667.466873	1.273652	0.361068	5301.057617
5667.467891	1.242521	0.361068	6565.943848
5667.468824	1.214322	0.361068	7698.906738
5667.469691	0.928667	0.361068	8504.060547
5667.470785	0.106359	0.361068	8620.416992
5667.471667	0.083639	0.361068	8694.186523
5667.472539	0.083837	0.361068	8767.291992
5667.473463	0.083851	0.361068	8844.770508
5667.474460	0.083826	0.361068	8928.344727
5667.475379	0.083752	0.361068	9005.313477
5667.476272	0.083749	0.361068	9080.101562
5667.477279	0.083837	0.361068	9164.525391
5667.478190	0.083734	0.361068	9240.807617
5667.479109	0.083774	0.361068	9317.795898
5668.499998	0.928242	0.350751	472.475281
5668.500995	1.332199	0.350751	1800.677246
5668.501887	1.329686	0.350751	2986.757324
5668.502870	1.299459	0.350751	4264.125977
5668.503928	1.265988	0.350751	5603.541016
5668.504822	1.237936	0.350751	6710.255859
5668.505708	1.210437	0.350751	7782.703125
5668.506821	0.570930	0.350751	8418.148437
5668.507771	0.088557	0.350751	8502.277344
5668.508639	0.083811	0.350751	8575.025391
5668.509706	0.083969	0.350751	8664.620117
5668.510729	0.083881	0.350751	8750.429687
5668.511622	0.083892	0.350751	8825.344727
5668.512562	0.083910	0.350751	8904.219727
5668.513624	0.083965	0.350751	8993.390625
5668.514559	0.083881	0.350751	9071.819336
5668.515423	0.083844	0.350751	9144.260742
5668.516468	0.083994	0.350751	9232.034180
5669.528583	0.935903	0.362220	467.951691
5669.529518	1.326958	0.362220	1708.657471
5669.530450	1.330902	0.362220	2949.058105
5669.531319	1.303938	0.362220	4082.180176
5669.532293	1.273385	0.362220	5322.457031
5669.533228	1.243748	0.362220	6485.361328
5669.534128	1.216659	0.362220	7580.354492
5669.535051	0.961194	0.362220	8467.536133
5669.536006	0.130397	0.362220	8592.065430
5669.536930	0.083712	0.362220	8669.415039
5669.537819	0.083866	0.362220	8743.971680
5669.538733	0.083774	0.362220	8820.541016
5669.539688	0.083800	0.362220	8900.570312
5669.540604	0.083826	0.362220	8977.354492
5669.541466	0.083840	0.362220	9049.625000
5669.542437	0.083782	0.362220	9130.977539
5669.543367	0.083793	0.362220	9208.904297
5669.544261	0.083837	0.362220	9283.854492
5670.560703	0.860446	0.356983	368.270691
5670.561694	1.323417	0.356983	1679.776855
5670.562626	1.331353	0.356983	2920.597412
5670.563508	1.304469	0.356983	4071.139160
5670.564438	1.275315	0.356983	5257.182129
5670.565385	1.245267	0.356983	6436.450195
5670.566296	1.217025	0.356983	7545.160156
5670.567194	1.011368	0.356983	8453.369141
5670.568121	0.150128	0.356983	8592.538086
5670.569079	0.083709	0.356983	8672.730469
5670.569974	0.083822	0.356983	8747.750977
5670.570890	0.083800	0.356983	8824.511719
5670.571865	0.083782	0.356983	8906.199219
5670.572789	0.083782	0.356983	8983.613281
5670.573657	0.083815	0.356983	9056.364258
5670.574602	0.083807	0.356983	9135.562500
5670.575535	0.083804	0.356983	9213.750977
5670.576464	0.083793	0.356983	9291.594727
5671.594446	0.869502	0.362091	382.580872
5671.595314	1.317275	0.362091	1525.975830
5671.596180	1.333737	0.362091	2680.991699
5671.597237	1.304022	0.362091	4059.343262
5671.598139	1.275165	0.362091	5209.541992
5671.599019	1.247856	0.362091	6307.655762
5671.599998	1.218637	0.362091	7500.701172
5671.600955	0.977029	0.362091	8435.717773
5671.601882	0.139373	0.362091	8564.916016
5671.602745	0.083709	0.362091	8637.156250
5671.603781	0.083749	0.362091	8723.919922
5671.604662	0.083833	0.362091	8797.776367
5671.605538	0.083818	0.362091	8871.201172
5671.606490	0.083873	0.362091	8951.048828
5671.607471	0.083822	0.362091	9033.278320
5671.608373	0.083870	0.362091	9108.928711
5671.609250	0.083877	0.362091	9182.489258
5671.610271	0.083917	0.362091	9268.168945
5672.620057	0.927916	0.366869	478.804779
5672.620965	1.327200	0.366869	1683.902100
5672.621844	1.332220	0.366869	2854.923828
5672.622867	1.301770	0.366869	4186.634766
5672.623863	1.269309	0.366869	5450.866699
5672.624750	1.241752	0.366869	6552.300293
5672.625615	1.214769	0.366869	7603.075684
5672.626714	0.747382	0.366869	8424.448242
5672.627620	0.100690	0.366869	8515.672852
5672.628484	0.083723	0.366869	8588.009766
5672.629466	0.083969	0.366869	8670.466797
5672.630472	0.083789	0.366869	8754.758789
5672.631356	0.083811	0.366869	8828.847656
5672.632220	0.083884	0.366869	8901.323242
5672.633304	0.083851	0.366869	8992.217773
5672.634237	0.083815	0.366869	9070.416992
5672.635116	0.083892	0.366869	9144.157227
5672.636088	0.083932	0.366869	9225.739258
5673.657285	0.853748	0.361092	370.526428
5673.658155	1.316481	0.361092	1515.864746
5673.659199	1.330931	0.361092	2905.357178
5673.660225	1.299968	0.361092	4239.125000
5673.661119	1.271111	0.361092	5375.498047
5673.662070	1.242147	0.361092	6556.780273
5673.663118	1.210309	0.361092	7825.183594
5673.664058	0.717601	0.361092	8499.728516
5673.664918	0.101385	0.361092	8586.919922
5673.665989	0.083796	0.361092	8676.666016
5673.667002	0.083807	0.361092	8761.562500
5673.667876	0.083785	0.361092	8834.791016
5673.668850	0.083855	0.361092	8916.465820
5673.669917	0.083888	0.361092	9005.974609
5673.670815	0.083895	0.361092	9081.312500
5673.671686	0.083877	0.361092	9154.369141
5673.672752	0.083961	0.361092	9243.872070
5673.673743	0.083881	0.361092	9326.998047
5674.681317	0.905339	0.362808	424.604156
5674.682244	1.324222	0.362808	1652.158325
5674.683130	1.332828	0.362808	2833.044434
5674.684055	1.305110	0.362808	4040.270996
5674.685014	1.274652	0.362808	5262.662109
5674.685937	1.245897	0.362808	6412.625488
5674.686802	1.219292	0.362808	7467.312988
5674.687744	1.014653	0.362808	8423.116211
5674.688677	0.152256	0.362808	8565.170898
5674.689607	0.083672	0.362808	8642.985352
5674.690480	0.083763	0.362808	8716.110352
5674.691455	0.083793	0.362808	8797.808594
5674.692407	0.083807	0.362808	8877.592773
5674.693292	0.083734	0.362808	8951.697266
5674.694200	0.083741	0.362808	9027.734375
5674.695144	0.083796	0.362808	9106.837891
5674.696053	0.083851	0.362808	9183.058594
5674.696913	0.083712	0.362808	9255.050781
5675.721174	0.885685	0.361064	392.358368
5675.722102	1.322194	0.361064	1619.354126
5675.722967	1.332971	0.361064	2772.374268
5675.723971	1.304073	0.361064	4081.664062
5675.724908	1.274187	0.361064	5275.577148
5675.725774	1.246201	0.361064	6354.787109
5675.726797	1.215798	0.361064	7598.548828
5675.727693	0.952804	0.361064	8452.260742
5675.728613	0.136311	0.361064	8577.666992
5675.729489	0.083730	0.361064	8651.014648
5675.730486	0.083870	0.361064	8734.632812
5675.731415	0.083870	0.361064	8812.547852
5675.732291	0.083763	0.361064	8885.924805
5675.733337	0.083855	0.361064	8973.636719
5675.734229	0.083796	0.361064	9048.382812
5675.735149	0.083785	0.361064	9125.465820
5675.736017	0.083822	0.361064	9198.223633
5675.737000	0.083818	0.361064	9280.617187
5676.744635	0.847606	0.354437	357.689819
5676.745583	1.316561	0.354437	1605.789917
5676.746629	1.329441	0.354437	2996.385254
5676.747516	1.302023	0.354437	4151.279297
5676.748382	1.273641	0.354437	5254.252930
5676.749453	1.240913	0.354437	6583.270996
5676.750400	1.212411	0.354437	7731.424316
5676.751290	0.865049	0.354437	8501.317383
5676.752256	0.118989	0.354437	8616.260742
5676.753270	0.083705	0.354437	8701.137695
5676.754150	0.083796	0.354437	8774.878906
5676.755011	0.083837	0.354437	8847.062500
5676.756077	0.083903	0.354437	8936.502930
5676.757019	0.083833	0.354437	9015.473633
5676.757884	0.083833	0.354437	9087.989258
5676.758818	0.083892	0.354437	9166.343750
5676.759872	0.083862	0.354437	9254.734375
5676.760772	0.083789	0.354437	9330.144531
5677.785127	0.919310	0.350038	489.992371
5677.786201	1.332945	0.350038	1921.575684
5677.787115	1.326621	0.350038	3134.107422
5677.787982	1.298236	0.350038	4259.678223
5677.789068	1.264310	0.350038	5632.719238
5677.790078	1.233120	0.350038	6878.170410
5677.790975	1.206493	0.350038	7960.394531
5677.791981	0.521133	0.350038	8484.654297
5677.793032	0.086155	0.350038	8575.203125
5677.793918	0.083763	0.350038	8649.417969
5677.794803	0.083903	0.350038	8723.671875
5677.795878	0.083899	0.350038	8813.863281
5677.796837	0.083837	0.350038	8894.262695
5677.797708	0.083851	0.350038	8967.296875
5677.798751	0.083928	0.350038	9054.833984
5677.799789	0.083807	0.350038	9141.826172
5677.800685	0.083796	0.350038	9216.908203
5677.801619	0.083903	0.350038	9295.273437
5678.806469	0.848145	0.352496	357.068848
5678.807383	1.316642	0.352496	1560.479492
5678.808322	1.332949	0.352496	2812.118652
5678.809248	1.305696	0.352496	4021.192871
5678.810117	1.277259	0.352496	5131.131348
5678.811097	1.247509	0.352496	6353.689453
5678.812002	1.219069	0.352496	7456.946289
5678.812893	1.078107	0.352496	8417.539062
5678.813861	0.155878	0.352496	8568.428711
5678.814829	0.083709	0.352496	8649.458984
5678.815753	0.083862	0.352496	8726.947266
5678.816613	0.083800	0.352496	8799.015625
5678.817581	0.083826	0.352496	8880.159180
5678.818523	0.083818	0.352496	8959.116211
5678.819412	0.083884	0.352496	9033.689453
5678.820329	0.083895	0.352496	9110.621094
5678.821282	0.083840	0.352496	9190.520508
5678.822198	0.083745	0.352496	9267.231445
5679.847415	0.905090	0.346860	432.633179
5679.848296	1.321626	0.346860	1596.985596
5679.849314	1.330869	0.346860	2951.810303
5679.850224	1.302294	0.346860	4136.897461
5679.851130	1.273195	0.346860	5290.411621
5679.852011	1.245304	0.346860	6387.524414
5679.853049	1.214685	0.346860	7648.367187
5679.853949	0.914949	0.346860	8471.821289
5679.854869	0.124171	0.346860	8586.058594
5679.855733	0.083639	0.346860	8658.322266
5679.856741	0.083741	0.346860	8742.733398
5679.857659	0.083829	0.346860	8819.688477
5679.858521	0.083862	0.346860	8891.977539
5679.859546	0.083870	0.346860	8977.944336
5679.860427	0.083756	0.346860	9051.733398
5679.861344	0.083837	0.346860	9128.611328
5679.862203	0.083939	0.346860	9200.714844
5679.863160	0.083851	0.346860	9280.960937
5680.869824	0.853440	0.350328	368.686035
5680.870711	1.317546	0.350328	1537.349609
5680.871572	1.333638	0.350328	2685.611816
5680.872696	1.302836	0.350328	4149.999023
5680.873580	1.273810	0.350328	5276.046875
5680.874447	1.246696	0.350328	6356.931641
5680.875505	1.214894	0.350328	7642.289062
5680.876478	0.860156	0.350328	8479.220703
5680.877341	0.119176	0.350328	8582.069336
5680.878211	0.083785	0.350328	8654.962891
5680.879330	0.083877	0.350328	8748.821289
5680.880238	0.083848	0.350328	8824.955078
5680.881104	0.083899	0.350328	8897.611328
5680.882167	0.084042	0.350328	8986.947266
5680.883139	0.083899	0.350328	9068.497070
5680.884013	0.083855	0.350328	9141.786133
5680.884872	0.083914	0.350328	9213.868164
5680.885986	0.083906	0.350328	9307.339844
5681.910717	0.850140	0.349277	360.459534
5681.911772	1.325940	0.349277	1759.326172
5681.912785	1.327566	0.349277	3104.150391
5681.913660	1.299760	0.349277	4241.439941
5681.914626	1.269174	0.349277	5467.461914
5681.915695	1.235856	0.349277	6788.591797
5681.916631	1.207899	0.349277	7919.185547
5681.917510	0.688356	0.349277	8524.250000
5681.918581	0.089839	0.349277	8620.467773
5681.919582	0.083767	0.349277	8704.318359
5681.920470	0.083833	0.349277	8778.761719
5681.921448	0.083950	0.349277	8860.865234
5681.922491	0.083903	0.349277	8948.375977
5681.923395	0.083815	0.349277	9024.144531
5681.924256	0.083793	0.349277	9096.290039
5681.925370	0.083917	0.349277	9189.773437
5681.926351	0.083818	0.349277	9271.999023
5681.927218	0.083870	0.349277	9344.713867
5682.933774	0.899905	0.348661	446.352783
5682.934687	1.326006	0.348661	1656.996216
5682.935574	1.332385	0.348661	2838.821777
5682.936492	1.305209	0.348661	4037.003418
5682.937439	1.274315	0.348661	5243.779785
5682.938387	1.244857	0.348661	6423.904297
5682.939267	1.218179	0.348661	7495.901367
5682.940275	0.908236	0.348661	8411.403320
5682.941238	0.119070	0.348661	8526.067383
5682.942162	0.083760	0.348661	8603.460937
5682.943031	0.083826	0.348661	8676.305664
5682.944001	0.083862	0.348661	8757.652344
5682.944933	0.083840	0.348661	8835.791992
5682.945799	0.083826	0.348661	8908.384766
5682.946683	0.083833	0.348661	8982.493164
5682.947646	0.083778	0.348661	9063.171875
5682.948601	0.083859	0.348661	9143.256836
5682.949492	0.083793	0.348661	9217.916016
5683.972023	0.856564	0.351791	360.613342
5683.973002	1.323292	0.351791	1656.116455
5683.973924	1.332085	0.351791	2884.298828
5683.974796	1.305487	0.351791	4022.683594
5683.975725	1.275886	0.351791	5207.981934
5683.976676	1.245494	0.351791	6392.447266
5683.977620	1.217325	0.351791	7541.602539
5683.978515	1.022717	0.351791	8456.934570
5683.979437	0.155870	0.351791	8600.647461
5683.980393	0.083687	0.351791	8680.651367
5683.981284	0.083844	0.351791	8755.356445
5683.982254	0.083851	0.351791	8836.692383
5683.983187	0.083903	0.351791	8914.973633
5683.984111	0.083859	0.351791	8992.458984
5683.984983	0.083851	0.351791	9065.577148
5683.985964	0.083818	0.351791	9147.802734
5683.986870	0.083840	0.351791	9223.761719
5683.987786	0.083862	0.351791	9300.580078
5684.999157	0.901190	0.345877	429.867737
5685.000049	1.321974	0.345877	1609.068359
5685.000911	1.333261	0.345877	2758.338867
5685.001973	1.302078	0.345877	4141.145508
5685.002911	1.272045	0.345877	5334.323242
5685.003789	1.244857	0.345877	6427.307617
5685.004743	1.216260	0.345877	7587.619141
5685.005783	0.827505	0.345877	8448.224609
5685.006672	0.111610	0.345877	8547.446289
5685.007535	0.083745	0.345877	8619.718750
5685.008601	0.083969	0.345877	8709.229492
5685.009553	0.083778	0.345877	8788.986328
5685.010431	0.083910	0.345877	8862.659180
5685.011371	0.083928	0.345877	8941.551758
5685.012408	0.083881	0.345877	9028.536133
5685.013285	0.083870	0.345877	9102.089844
5685.014143	0.083829	0.345877	9174.015625
5685.015180	0.083855	0.345877	9260.973633
5686.032376	0.903618	0.346997	433.736725
5686.033248	1.321512	0.346997	1586.095581
5686.034218	1.331616	0.346997	2877.763184
5686.035284	1.299250	0.346997	4262.764160
5686.036206	1.269609	0.346997	5433.343750
5686.037075	1.241887	0.346997	6512.543945
5686.038152	1.209950	0.346997	7815.660156
5686.039168	0.623767	0.346997	8449.407227
5686.040066	0.092640	0.346997	8532.598633
5686.041049	0.083815	0.346997	8614.988281
5686.042097	0.083818	0.346997	8702.830078
5686.043004	0.083789	0.346997	8778.827148
5686.043865	0.083851	0.346997	8851.023437
5686.044969	0.083881	0.346997	8943.627930
5686.045943	0.083844	0.346997	9025.291992
5686.046808	0.083870	0.346997	9097.838867
5686.047903	0.083899	0.346997	9189.708008
5686.048943	0.083844	0.346997	9276.906250
5687.063029	0.872798	0.336447	415.451782
5687.063951	1.324233	0.336447	1636.395020
5687.064841	1.332612	0.336447	2822.419922
5687.065741	1.305776	0.336447	3997.618652
5687.066694	1.274623	0.336447	5212.333984
5687.067652	1.245113	0.336447	6405.152832
5687.068540	1.218365	0.336447	7487.061523
5687.069481	0.986671	0.336447	8415.519531
5687.070456	0.142529	0.336447	8554.485352
5687.071360	0.083719	0.336447	8630.167969
5687.072236	0.083844	0.336447	8703.615234
5687.073188	0.083815	0.336447	8783.407227
5687.074114	0.083811	0.336447	8861.016602
5687.075041	0.083906	0.336447	8938.797852
5687.075903	0.083829	0.336447	9011.058594
5687.076868	0.083807	0.336447	9091.932617
5687.077820	0.083855	0.336447	9171.762695
5687.078709	0.083811	0.336447	9246.270508
5688.092638	0.876570	0.345035	392.703278
5688.093517	1.318480	0.345035	1551.647339
5688.094381	1.334224	0.345035	2704.416504
5688.095443	1.304011	0.345035	4089.276367
5688.096321	1.274982	0.345035	5208.710449
5688.097201	1.247717	0.345035	6306.701660
5688.098150	1.219193	0.345035	7463.715820
5688.099133	0.986792	0.345035	8433.732422
5688.100050	0.143353	0.345035	8565.187500
5688.100927	0.083738	0.345035	8638.625977
5688.101986	0.083793	0.345035	8727.362305
5688.102876	0.083811	0.345035	8801.954102
5688.103749	0.083851	0.345035	8875.156250
5688.104631	0.083932	0.345035	8949.184570
5688.105665	0.083844	0.345035	9035.878906
5688.106551	0.083796	0.345035	9110.122070
5688.107416	0.083873	0.345035	9182.672852
5688.108405	0.083782	0.345035	9265.533203
5689.127960	0.925906	0.331605	469.434204
5689.128953	1.331356	0.331605	1791.470825
5689.129846	1.329880	0.331605	2979.053955
5689.130846	1.299518	0.331605	4278.571777
5689.131905	1.265691	0.331605	5618.938477
5689.132786	1.237932	0.331605	6709.556641
5689.133675	1.210426	0.331605	7785.625488
5689.134765	0.601718	0.331605	8441.498047
5689.135712	0.089304	0.331605	8526.069336
5689.136570	0.083822	0.331605	8597.988281
5689.137593	0.083873	0.331605	8683.791016
5689.138661	0.083877	0.331605	8773.372070
5689.139530	0.083906	0.331605	8846.286133
5689.140463	0.083910	0.331605	8924.574219
5689.141538	0.083833	0.331605	9014.694336
5689.142475	0.083859	0.331605	9093.269531
5689.143347	0.083892	0.331605	9166.422852
5689.144388	0.083943	0.331605	9253.807617
5690.151875	0.854897	0.347275	367.605896
5690.152842	1.321564	0.347275	1645.558105
5690.153778	1.331265	0.347275	2891.621826
5690.154700	1.303784	0.347275	4093.710937
5690.155563	1.275168	0.347275	5194.181152
5690.156520	1.245428	0.347275	6386.056152
5690.157476	1.216985	0.347275	7549.493652
5690.158375	1.004425	0.347275	8452.471680
5690.159301	0.154838	0.347275	8595.851562
5690.160269	0.083752	0.347275	8676.923828
5690.161187	0.083844	0.347275	8753.892578
5690.162056	0.083925	0.347275	8826.823242
5690.163089	0.083866	0.347275	8913.457031
5690.164030	0.083807	0.347275	8992.319336
5690.164959	0.083910	0.347275	9070.271484
5690.165820	0.083829	0.347275	9142.448242
5690.166789	0.083822	0.347275	9223.671875
5690.167723	0.083877	0.347275	9302.012695
5691.192792	0.869674	0.335984	385.265625
5691.193667	1.318191	0.335984	1538.682739
5691.194536	1.334290	0.335984	2698.180176
5691.195518	1.306480	0.335984	3981.143066
5691.196449	1.276282	0.335984	5169.361328
5691.197339	1.248373	0.335984	6280.413086
5691.198232	1.220684	0.335984	7370.483398
5691.199225	1.031096	0.335984	8394.362305
5691.200173	0.158785	0.335984	8544.890625
5691.201061	0.083741	0.335984	8619.252930
5691.201991	0.083800	0.335984	8697.186523
5691.202937	0.083738	0.335984	8776.402344
5691.203816	0.083837	0.335984	8850.094727
5691.204700	0.083811	0.335984	8924.183594
5691.205696	0.083782	0.335984	9007.629883
5691.206615	0.083837	0.335984	9084.675781
5691.207498	0.083895	0.335984	9158.754883
5691.208430	0.083826	0.335984	9236.880859
5692.211697	0.897971	0.354143	422.944427
5692.212581	1.321465	0.354143	1591.119385
5692.213449	1.333429	0.354143	2748.535645
5692.214528	1.301854	0.354143	4153.236328
5692.215474	1.271389	0.354143	5355.970703
5692.216358	1.243905	0.354143	6455.583008
5692.217295	1.215886	0.354143	7594.868164
5692.218338	0.821832	0.354143	8452.039062
5692.219219	0.112672	0.354143	8551.302734
5692.220081	0.083705	0.354143	8623.456055
5692.221133	0.083840	0.354143	8711.656250
5692.222079	0.083840	0.354143	8790.968750
5692.222946	0.083873	0.354143	8863.686523
5692.223834	0.083833	0.354143	8938.129883
5692.224923	0.083840	0.354143	9029.431641
5692.225817	0.083782	0.354143	9104.332031
5692.226683	0.083844	0.354143	9176.941406
5692.227693	0.083877	0.354143	9261.657227
5693.258690	0.852989	0.332475	366.785492
5693.259560	1.315843	0.332475	1511.569336
5693.260631	1.330342	0.332475	2936.365234
5693.261656	1.299045	0.332475	4267.886719
5693.262549	1.270316	0.332475	5402.279297
5693.263520	1.240737	0.332475	6607.035156
5693.264573	1.208859	0.332475	7879.963379
5693.265497	0.679904	0.332475	8508.194336
5693.266360	0.098097	0.332475	8592.851562
5693.267431	0.083760	0.332475	8682.558594
5693.268432	0.083800	0.332475	8766.442383
5693.269304	0.083877	0.332475	8839.583008
5693.270313	0.083888	0.332475	8924.225586
5693.271357	0.083826	0.332475	9011.739258
5693.272258	0.083851	0.332475	9087.289062
5693.273116	0.083833	0.332475	9159.217773
5693.274204	0.083950	0.332475	9250.555664
5693.275202	0.083785	0.332475	9334.173828
5694.273521	0.889182	0.358155	410.802155
5694.274415	1.320923	0.358155	1591.707153
5694.275279	1.333429	0.358155	2743.789795
5694.276257	1.305560	0.358155	4020.627930
5694.277220	1.274773	0.358155	5248.234375
5694.278106	1.246263	0.358155	6352.423828
5694.278997	1.219036	0.358155	7438.584473
5694.279963	0.983712	0.358155	8388.850586
5694.280901	0.147371	0.358155	8527.083984
5694.281769	0.083774	0.358155	8599.799805
5694.282745	0.083807	0.358155	8681.595703
5694.283705	0.083829	0.358155	8762.072266
5694.284598	0.083888	0.358155	8836.984375
5694.285510	0.083873	0.358155	8913.476562
5694.286430	0.083895	0.358155	8990.660156
5694.287384	0.083829	0.358155	9070.633789
5694.288262	0.083965	0.358155	9144.354492
5694.289177	0.083840	0.358155	9221.068359
5695.323600	0.866799	0.330437	377.924500
5695.324467	1.316748	0.330437	1519.544922
5695.325457	1.332323	0.330437	2838.544678
5695.326394	1.304634	0.330437	4060.986572
5695.327270	1.275765	0.330437	5178.557129
5695.328164	1.247809	0.330437	6294.098145
5695.329116	1.218585	0.330437	7454.191406
5695.330070	1.008431	0.330437	8416.234375
5695.330964	0.159591	0.330437	8558.909180
5695.331882	0.083917	0.330437	8635.945312
5695.332839	0.083859	0.330437	8716.198242
5695.333729	0.083833	0.330437	8790.809570
5695.334677	0.083939	0.330437	8870.383789
5695.335618	0.083804	0.330437	8949.243164
5695.336542	0.083800	0.330437	9026.674805
5695.337417	0.083826	0.330437	9100.022461
5695.338327	0.083881	0.330437	9176.353516
5695.339284	0.083815	0.330437	9256.564453
5696.337917	0.900146	0.352306	439.271484
5696.338797	1.322091	0.352306	1602.711670
5696.339663	1.333484	0.352306	2757.508789
5696.340721	1.302451	0.352306	4135.501953
5696.341674	1.271781	0.352306	5347.509277
5696.342556	1.244264	0.352306	6444.950195
5696.343469	1.216425	0.352306	7555.545898
5696.344551	0.816057	0.352306	8438.519531
5696.345434	0.111987	0.352306	8537.404297
5696.346291	0.083727	0.352306	8609.158203
5696.347336	0.083851	0.352306	8696.783203
5696.348300	0.083745	0.352306	8777.513672
5696.349176	0.083881	0.352306	8850.993164
5696.350059	0.083928	0.352306	8925.101562
5696.351175	0.083884	0.352306	9018.716797
5696.352074	0.083756	0.352306	9094.013672
5696.352939	0.083870	0.352306	9166.560547
5696.353972	0.083873	0.352306	9253.201172
5697.383467	0.940415	0.323282	489.956207
5697.384503	1.332576	0.323282	1870.504639
5697.385397	1.328075	0.323282	3057.803711
5697.386341	1.298895	0.323282	4283.960937
5697.387405	1.264871	0.323282	5629.783203
5697.388342	1.236002	0.323282	6787.916992
5697.389210	1.209474	0.323282	7837.740234
5697.390298	0.549902	0.323282	8436.034180
5697.391305	0.086700	0.323282	8523.341797
5697.392198	0.083745	0.323282	8598.125977
5697.393166	0.083895	0.323282	8679.336914
5697.394202	0.083895	0.323282	8766.251953
5697.395108	0.083829	0.323282	8842.201172
5697.395972	0.083837	0.323282	8914.635742
5697.397047	0.083881	0.323282	9004.807617
5697.398046	0.083848	0.323282	9088.571289
5697.398922	0.083840	0.323282	9162.015625
5697.399924	0.083947	0.323282	9246.129883
5698.403273	0.864060	0.339653	379.322357
5698.404148	1.317220	0.339653	1531.890259
5698.405061	1.333839	0.339653	2749.685547
5698.406020	1.306241	0.339653	4002.371094
5698.406945	1.276245	0.339653	5182.897949
5698.407812	1.248783	0.339653	6265.592773
5698.408751	1.220394	0.339653	7411.542969
5698.409686	1.035930	0.339653	8380.137695
5698.410610	0.172874	0.339653	8539.873047
5698.411486	0.083899	0.339653	8613.368164
5698.412458	0.083756	0.339653	8694.779297
5698.413401	0.083804	0.339653	8773.806641
5698.414290	0.083804	0.339653	8848.308594
5698.415204	0.083804	0.339653	8924.905273
5698.416148	0.083822	0.339653	9004.033203
5698.417062	0.083785	0.339653	9080.613281
5698.417935	0.083895	0.339653	9153.853516
5698.418840	0.083741	0.339653	9229.639648
5699.441178	0.944692	0.320724	492.184692
5699.442078	1.325823	0.320724	1685.425171
5699.443001	1.331422	0.320724	2914.327637
5699.443866	1.304224	0.320724	4042.480957
5699.444843	1.273451	0.320724	5286.642578
5699.445777	1.244363	0.320724	6448.877441
5699.446670	1.217567	0.320724	7536.165039
5699.447620	0.971580	0.320724	8459.166016
5699.448567	0.134718	0.320724	8586.744141
5699.449492	0.083749	0.320724	8664.211914
5699.450363	0.083990	0.320724	8737.367187
5699.451341	0.083844	0.320724	8819.366211
5699.452286	0.083870	0.320724	8898.623047
5699.453217	0.083983	0.320724	8976.811523
5699.454075	0.083895	0.320724	9048.793945
5699.455044	0.083873	0.320724	9130.067383
5699.455955	0.083932	0.320724	9206.529297
5699.456841	0.083870	0.320724	9280.837891
5700.471256	0.871798	0.330404	388.821960
5700.472132	1.317898	0.330404	1543.300537
5700.473047	1.332554	0.330404	2762.587158
5700.474140	1.301470	0.330404	4185.093750
5700.475011	1.272708	0.330404	5293.622070
5700.475884	1.245461	0.330404	6380.909668
5700.476917	1.214224	0.330404	7635.202637
5700.477895	0.845951	0.330404	8462.542969
5700.478769	0.116085	0.330404	8564.000977
5700.479651	0.083807	0.330404	8637.918945
5700.480753	0.083870	0.330404	8730.343750
5700.481645	0.083723	0.330404	8805.024414
5700.482511	0.083778	0.330404	8877.576172
5700.483567	0.083906	0.330404	8966.181641
5700.484530	0.083796	0.330404	9046.877930
5700.485412	0.083789	0.330404	9120.780273
5700.486268	0.083837	0.330404	9192.544922
5700.487378	0.083873	0.330404	9285.644531
5701.499941	0.941071	0.330642	495.944183
5701.500946	1.332283	0.330642	1834.888306
5701.501839	1.329009	0.330642	3021.693359
5701.502826	1.298741	0.330642	4303.551270
5701.503890	1.264838	0.330642	5649.338379
5701.504802	1.236215	0.330642	6776.766113
5701.505672	1.208976	0.330642	7828.575195
5701.506769	0.551492	0.330642	8433.561523
5701.507735	0.087627	0.330642	8518.208984
5701.508596	0.083793	0.330642	8590.354492
5701.509682	0.083829	0.330642	8681.393555
5701.510720	0.083851	0.330642	8768.431641
5701.511600	0.083921	0.330642	8842.282227
5701.512517	0.083840	0.330642	8919.164062
5701.513579	0.083829	0.330642	9008.190430
5701.514520	0.083643	0.330642	9086.898437
5701.515378	0.083903	0.330642	9158.886719
5701.516398	0.083884	0.330642	9244.448242
5702.537148	0.847262	0.334187	358.391815
5702.538085	1.320722	0.334187	1595.907837
5702.539041	1.331393	0.334187	2868.719482
5702.539963	1.303887	0.334187	4070.903076
5702.540831	1.275102	0.334187	5177.691895
5702.541812	1.245491	0.334187	6399.518555
5702.542771	1.216659	0.334187	7566.294434
5702.543669	0.995325	0.334187	8460.095703
5702.544608	0.153322	0.334187	8604.064453
5702.545554	0.083719	0.334187	8683.262695
5702.546468	0.083822	0.334187	8759.875977
5702.547354	0.083910	0.334187	8834.219727
5702.548267	0.083811	0.334187	8910.739258
5702.549231	0.083851	0.334187	8991.572266
5702.550122	0.083844	0.334187	9066.277344
5702.551032	0.083833	0.334187	9142.565430
5702.551991	0.083851	0.334187	9222.978516
5702.552911	0.083796	0.334187	9300.071289
5703.560698	0.906628	0.336781	429.741882
5703.561591	1.322025	0.336781	1610.310303
5703.562461	1.333356	0.336781	2770.329590
5703.563443	1.304780	0.336781	4051.623779
5703.564380	1.273887	0.336781	5245.255859
5703.565304	1.245524	0.336781	6396.119629
5703.566184	1.218552	0.336781	7468.445312
5703.567219	0.933585	0.336781	8434.706055
5703.568135	0.128181	0.336781	8552.120117
5703.569015	0.083771	0.336781	8625.837891
5703.569943	0.083990	0.336781	8703.781250
5703.570933	0.083903	0.336781	8786.844727
5703.571851	0.083796	0.336781	8863.769531
5703.572715	0.083917	0.336781	8936.274414
5703.573775	0.083903	0.336781	9025.210937
5703.574657	0.083804	0.336781	9099.125977
5703.575519	0.083826	0.336781	9171.383789
5703.576402	0.083888	0.336781	9245.457031
5704.600572	0.913810	0.334376	432.232056
5704.601452	1.321538	0.334376	1595.185547
5704.602431	1.330946	0.334376	2898.181641
5704.603498	1.298452	0.334376	4283.629883
5704.604424	1.268734	0.334376	5458.477539
5704.605289	1.241012	0.334376	6531.953125
5704.606387	1.209221	0.334376	7859.678223
5704.607391	0.602428	0.334376	8464.515625
5704.608282	0.091890	0.334376	8546.389648
5704.609282	0.083756	0.334376	8630.145508
5704.610331	0.083892	0.334376	8718.147461
5704.611217	0.083818	0.334376	8792.410156
5704.612084	0.083906	0.334376	8865.157227
5704.613180	0.083921	0.334376	8957.134766
5704.614131	0.083881	0.334376	9036.905273
5704.614991	0.083826	0.334376	9108.995117
5704.616059	0.083903	0.334376	9198.603516
5704.617085	0.083811	0.334376	9284.593750
5705.622491	0.881078	0.338610	401.771515
5705.623376	1.319714	0.338610	1569.718628
5705.624242	1.333608	0.338610	2724.623535
5705.625217	1.305667	0.338610	3997.648437
5705.626181	1.275018	0.338610	5226.766113
5705.627073	1.247047	0.338610	6339.131836
5705.627988	1.219669	0.338610	7455.128906
5705.628937	1.020337	0.338610	8423.428711
5705.629869	0.156042	0.338610	8568.860352
5705.630740	0.083763	0.338610	8641.818359
5705.631646	0.083829	0.338610	8717.767578
5705.632609	0.083829	0.338610	8798.495117
5705.633496	0.083829	0.338610	8872.851562
5705.634406	0.083822	0.338610	8949.129883
5705.635381	0.083884	0.338610	9030.916992
5705.636304	0.083826	0.338610	9108.288086
5705.637168	0.083848	0.338610	9180.732422
5705.638125	0.083822	0.338610	9260.950195
5706.663421	0.876841	0.334340	433.159363
5706.664366	1.327716	0.334340	1687.851074
5706.665296	1.330408	0.334340	2925.130371
5706.666176	1.303645	0.334340	4072.337891
5706.667118	1.273293	0.334340	5271.780273
5706.668080	1.243638	0.334340	6468.159668
5706.669004	1.215820	0.334340	7591.577637
5706.669868	0.978933	0.334340	8437.375977
5706.670831	0.139673	0.334340	8571.880859
5706.671796	0.083796	0.334340	8652.744141
5706.672692	0.083925	0.334340	8727.940430
5706.673606	0.083866	0.334340	8804.593750
5706.674536	0.083870	0.334340	8882.592773
5706.675492	0.083822	0.334340	8962.726562
5706.676378	0.083822	0.334340	9036.993164
5706.677292	0.083881	0.334340	9113.660156
5706.678249	0.083903	0.334340	9193.955078
5706.679136	0.083903	0.334340	9268.376953
5707.685918	0.919460	0.333007	484.555664
5707.686941	1.332609	0.333007	1847.814331
5707.687836	1.328309	0.333007	3036.651123
5707.688700	1.300928	0.333007	4160.652832
5707.689779	1.267134	0.333007	5527.890137
5707.690712	1.238331	0.333007	6683.252930
5707.691590	1.212008	0.333007	7747.395996
5707.692572	0.741270	0.333007	8475.322266
5707.693581	0.093248	0.333007	8569.410156
5707.694465	0.083774	0.333007	8643.466797
5707.695327	0.083848	0.333007	8715.743164
5707.696409	0.083859	0.333007	8806.478516
5707.697325	0.083811	0.333007	8883.249023
5707.698191	0.083826	0.333007	8955.841797
5707.699144	0.083906	0.333007	9035.804687
5707.700172	0.083785	0.333007	9121.936523
5707.701066	0.083855	0.333007	9196.903320
5707.701928	0.083862	0.333007	9269.192383
5708.724154	0.868466	0.329570	369.097870
5708.725141	1.325142	0.329570	1677.012695
5708.726075	1.330690	0.329570	2919.876953
5708.726954	1.304231	0.329570	4066.295898
5708.727871	1.274864	0.329570	5235.346680
5708.728833	1.244879	0.329570	6432.920410
5708.729755	1.217065	0.329570	7555.054687
5708.730621	1.027742	0.329570	8445.079102
5708.731605	0.154164	0.329570	8596.776367
5708.732558	0.083698	0.329570	8676.540039
5708.733444	0.083826	0.329570	8750.809570
5708.734311	0.083873	0.329570	8823.527344
5708.735268	0.083800	0.329570	8903.723633
5708.736219	0.083866	0.329570	8983.480469
5708.737114	0.083866	0.329570	9058.540039
5708.738026	0.083818	0.329570	9134.982422
5708.738972	0.083818	0.329570	9214.274414
5708.739873	0.083950	0.329570	9289.913086
5709.748176	0.876390	0.327359	382.982605
5709.749053	1.317869	0.327359	1538.753418
5709.750017	1.332499	0.327359	2823.282227
5709.750927	1.305183	0.327359	4010.998779
5709.751844	1.275831	0.327359	5180.936035
5709.752709	1.248530	0.327359	6260.914551
5709.753713	1.218988	0.327359	7484.778320
5709.754643	1.028148	0.327359	8440.956055
5709.755523	0.167911	0.327359	8588.717773
5709.756382	0.083954	0.327359	8660.833984
5709.757356	0.083895	0.327359	8742.547852
5709.758301	0.083829	0.327359	8821.766602
5709.759173	0.083910	0.327359	8894.936523
5709.760084	0.083811	0.327359	8971.288086
5709.761043	0.083881	0.327359	9051.729492
5709.761972	0.083954	0.327359	9129.722656
5709.762851	0.083892	0.327359	9203.462891
5709.763792	0.083844	0.327359	9282.360352
5710.786076	0.929385	0.329703	479.562531
5710.787003	1.327734	0.329703	1710.372192
5710.787866	1.331477	0.329703	2859.437012
5710.788942	1.299269	0.329703	4257.450195
5710.789947	1.267156	0.329703	5530.941895
5710.790832	1.239785	0.329703	6628.151855
5710.791824	1.210606	0.329703	7829.072266
5710.792873	0.599905	0.329703	8458.372070
5710.793780	0.090985	0.329703	8540.895508
5710.794640	0.083778	0.329703	8612.944336
5710.795728	0.083994	0.329703	8704.330078
5710.796715	0.083774	0.329703	8787.015625
5710.797584	0.083928	0.329703	8859.949219
5710.798565	0.083921	0.329703	8942.275391
5710.799623	0.083914	0.329703	9031.055664
5710.800516	0.083895	0.329703	9105.974609
5710.801387	0.083899	0.329703	9179.050781
5710.802494	0.083979	0.329703	9272.015625
5711.813057	0.854674	0.320334	364.091156
5711.813973	1.316224	0.320334	1569.752686
5711.814940	1.332078	0.320334	2857.871582
5711.815875	1.304052	0.320334	4077.159668
5711.816741	1.275937	0.320334	5182.121582
5711.817697	1.245729	0.320334	6373.038086
5711.818641	1.216670	0.320334	7521.574219
5711.819574	0.978647	0.320334	8434.652344
5711.820455	0.151666	0.320334	8568.270508
5711.821424	0.083690	0.320334	8649.366211
5711.822378	0.083763	0.320334	8729.276367
5711.823267	0.083789	0.320334	8803.764648
5711.824176	0.083763	0.320334	8879.905273
5711.825106	0.083800	0.320334	8957.838867
5711.826058	0.083815	0.320334	9037.630859
5711.826943	0.083818	0.320334	9111.810547
5711.827875	0.083800	0.320334	9189.912109
5711.828831	0.083895	0.320334	9270.116211
5712.846265	0.860636	0.329579	364.049011
5712.847254	1.324050	0.329579	1673.534668
5712.848187	1.330935	0.329579	2915.297119
5712.849054	1.304081	0.329579	4045.935059
5712.850048	1.272880	0.329579	5311.177246
5712.850987	1.243898	0.329579	6479.197266
5712.851873	1.216864	0.329579	7557.338867
5712.852759	0.972188	0.329579	8418.697266
5712.853743	0.140222	0.329579	8556.675781
5712.854664	0.083676	0.329579	8633.741211
5712.855553	0.083760	0.329579	8708.204102
5712.856467	0.083763	0.329579	8784.763672
5712.857422	0.083837	0.329579	8864.828125
5712.858344	0.083807	0.329579	8942.098633
5712.859230	0.083807	0.329579	9016.351562
5712.860183	0.083767	0.329579	9096.181641
5712.861108	0.083745	0.329579	9173.645508
5712.862034	0.083826	0.329579	9251.268555
5713.876006	0.927147	0.316720	477.480804
5713.876897	1.325790	0.316720	1658.759521
5713.877766	1.332440	0.316720	2816.649902
5713.878771	1.302151	0.316720	4125.311523
5713.879773	1.269771	0.316720	5397.621582
5713.880666	1.242488	0.316720	6507.163086
5713.881534	1.214978	0.316720	7561.764160
5713.882640	0.771764	0.316720	8415.334961
5713.883539	0.102524	0.316720	8507.504883
5713.884415	0.083654	0.316720	8580.785156
5713.885413	0.083914	0.316720	8664.531250
5713.886414	0.083752	0.316720	8748.367187
5713.887303	0.083804	0.316720	8822.869141
5713.888165	0.083829	0.316720	8895.129883
5713.889246	0.083785	0.316720	8985.702148
5713.890152	0.083826	0.316720	9061.648437
5713.891016	0.083837	0.316720	9134.083008
5713.892020	0.083833	0.316720	9218.250977
5714.907631	0.888219	0.321804	421.904022
5714.908567	1.324581	0.321804	1661.712280
5714.909449	1.332220	0.321804	2836.730713
5714.910365	1.305158	0.321804	4032.254883
5714.911344	1.273894	0.321804	5279.396973
5714.912274	1.244872	0.321804	6437.127930
5714.913140	1.218373	0.321804	7492.238770
5714.914085	0.976860	0.321804	8415.372070
5714.915028	0.141178	0.321804	8548.502930
5714.915960	0.083698	0.321804	8626.508789
5714.916834	0.083866	0.321804	8699.807617
5714.917809	0.083837	0.321804	8781.548828
5714.918759	0.083771	0.321804	8861.130859
5714.919652	0.083910	0.321804	8936.062500
5714.920561	0.083837	0.321804	9012.270508
5714.921487	0.083851	0.321804	9089.916992
5714.922415	0.083844	0.321804	9167.724609
5714.923274	0.083859	0.321804	9239.758789
5715.941336	0.880767	0.313796	392.821930
5715.942203	1.318132	0.313796	1535.642578
5715.943186	1.332037	0.313796	2845.035156
5715.944112	1.304641	0.313796	4053.132812
5715.944985	1.276044	0.313796	5167.119141
5715.945926	1.247267	0.313796	6340.797363
5715.946882	1.218175	0.313796	7505.372559
5715.947815	1.001239	0.313796	8439.528320
5715.948695	0.158148	0.313796	8578.698242
5715.949641	0.083690	0.313796	8657.869141
5715.950599	0.083837	0.313796	8738.184570
5715.951521	0.083829	0.313796	8815.475586
5715.952383	0.083829	0.313796	8887.736328
5715.953353	0.083844	0.313796	8969.065430
5715.954287	0.083936	0.313796	9047.460937
5715.955150	0.083789	0.313796	9119.770508
5715.956148	0.083785	0.313796	9203.388672
5715.957035	0.083862	0.313796	9277.774414
5716.969439	0.890046	0.323697	404.971100
5716.970324	1.319652	0.323697	1572.863281
5716.971187	1.332982	0.323697	2723.227051
5716.972286	1.302250	0.323697	4154.399414
5716.973180	1.272770	0.323697	5292.255371
5716.974064	1.245293	0.323697	6393.094238
5716.975077	1.215121	0.323697	7624.011719
5716.976103	0.802650	0.323697	8447.531250
5716.976992	0.107959	0.323697	8543.506836
5716.977853	0.083822	0.323697	8615.677734
5716.978954	0.083877	0.323697	8708.026367
5716.979868	0.083804	0.323697	8784.623047
5716.980735	0.083800	0.323697	8857.277344
5716.981831	0.083972	0.323697	8949.310547
5716.982825	0.083778	0.323697	9032.585937
5716.983716	0.083807	0.323697	9107.258789
5716.984697	0.083822	0.323697	9189.488281
5716.985755	0.083866	0.323697	9278.218750
5718.003717	0.897286	0.312257	436.978455
5718.004611	1.322791	0.312257	1619.553223
5718.005539	1.331898	0.312257	2855.554687
5718.006411	1.305667	0.312257	3994.095947
5718.007364	1.274996	0.312257	5209.167480
5718.008297	1.245377	0.312257	6371.104492
5718.009193	1.218626	0.312257	7462.993164
5718.010273	0.858248	0.312257	8389.901367
5718.011229	0.110420	0.312257	8495.462891
5718.012160	0.083763	0.312257	8573.446289
5718.013027	0.083826	0.312257	8646.123047
5718.013995	0.083873	0.312257	8727.312500
5718.014940	0.083884	0.312257	8806.583008
5718.015827	0.083866	0.312257	8880.971680
5718.016732	0.083800	0.312257	8956.810547
5718.017676	0.083804	0.312257	9035.920898
5718.018602	0.083848	0.312257	9113.563477
5718.019477	0.083936	0.312257	9187.006836
5719.032331	0.906277	0.323613	458.576111
5719.033238	1.325435	0.323613	1660.745361
5719.034149	1.331382	0.323613	2873.634277
5719.035034	1.304396	0.323613	4028.024414
5719.036009	1.273370	0.323613	5269.560547
5719.036950	1.243799	0.323613	6439.975098
5719.037880	1.216135	0.323613	7570.980957
5719.038748	0.976018	0.323613	8418.165039
5719.039721	0.139896	0.323613	8554.284180
5719.040653	0.083716	0.323613	8632.307617
5719.041519	0.083895	0.323613	8704.960937
5719.042539	0.083760	0.323613	8790.395508
5719.043415	0.083870	0.323613	8863.865234
5719.044321	0.083866	0.323613	8939.847656
5719.045196	0.083884	0.323613	9013.246094
5719.046187	0.083881	0.323613	9096.372070
5719.047105	0.083844	0.323613	9173.340820
5719.047993	0.083932	0.323613	9247.872070
5720.067638	0.947585	0.310948	521.171997
5720.068713	1.333605	0.310948	1954.796997
5720.069603	1.326343	0.310948	3135.241943
5720.070474	1.297427	0.310948	4265.300781
5720.071583	1.263439	0.310948	5666.454102
5720.072564	1.233629	0.310948	6876.644531
5720.073439	1.207236	0.310948	7932.976562
5720.074484	0.507389	0.310948	8463.198242
5720.075534	0.085822	0.310948	8553.310547
5720.076426	0.083774	0.310948	8628.037109
5720.077357	0.083862	0.310948	8706.113281
5720.078421	0.083884	0.310948	8795.366211
5720.079359	0.083804	0.310948	8873.973633
5720.080229	0.083862	0.310948	8946.933594
5720.081275	0.083914	0.310948	9034.707031
5720.082298	0.083848	0.310948	9120.483398
5720.083184	0.083774	0.310948	9194.708008
5720.084143	0.083932	0.310948	9275.198242
5721.095605	0.864067	0.323343	362.044220
5721.096593	1.324127	0.323343	1670.281860
5721.097528	1.330756	0.323343	2914.538330
5721.098422	1.303887	0.323343	4080.213135
5721.099337	1.274418	0.323343	5246.305664
5721.100308	1.244473	0.323343	6454.688477
5721.101240	1.216208	0.323343	7588.194824
5721.102108	1.006637	0.323343	8461.956055
5721.103088	0.144423	0.323343	8603.490234
5721.104022	0.083676	0.323343	8681.643555
5721.104931	0.083826	0.323343	8757.840820
5721.105788	0.083815	0.323343	8829.669922
5721.106752	0.083760	0.323343	8910.414062
5721.107702	0.083826	0.323343	8990.048828
5721.108597	0.083815	0.323343	9065.062500
5721.109503	0.083826	0.323343	9141.008789
5721.110466	0.083840	0.323343	9221.747070
5721.111379	0.083807	0.323343	9298.263672
5722.128873	0.889644	0.314428	406.567108
5722.129752	1.319872	0.314428	1566.734497
5722.130629	1.333953	0.314428	2736.610840
5722.131618	1.304898	0.314428	4027.154541
5722.132547	1.274462	0.314428	5211.129395
5722.133469	1.246234	0.314428	6360.157227
5722.134336	1.219574	0.314428	7417.527832
5722.135389	0.957448	0.314428	8425.719727
5722.136288	0.139003	0.314428	8550.683594
5722.137161	0.083712	0.314428	8623.764648
5722.138105	0.083796	0.314428	8702.868164
5722.139096	0.083811	0.314428	8785.924805
5722.140018	0.083804	0.314428	8863.191406
5722.140879	0.083793	0.314428	8935.336914
5722.141925	0.083815	0.314428	9023.006836
5722.142811	0.083756	0.314428	9097.214844
5722.143683	0.083818	0.314428	9170.304687
5722.144541	0.083969	0.314428	9242.349609
5723.159479	0.847075	0.320571	355.771606
5723.160428	1.316342	0.320571	1604.979858
5723.161500	1.328269	0.320571	3028.884277
5723.162439	1.299221	0.320571	4248.853027
5723.163309	1.270924	0.320571	5354.557129
5723.164377	1.238474	0.320571	6677.247559
5723.165387	1.208166	0.320571	7897.495605
5723.166272	0.719187	0.320571	8533.976562
5723.167251	0.099873	0.320571	8631.751953
5723.168305	0.083899	0.320571	8720.181641
5723.169210	0.083870	0.320571	8796.083984
5723.170067	0.083917	0.320571	8868.000977
5723.171122	0.083950	0.320571	8956.568359
5723.172120	0.083881	0.320571	9040.281250
5723.172997	0.083910	0.320571	9113.870117
5723.173980	0.083976	0.320571	9196.417969
5723.175024	0.083969	0.320571	9284.081055
5723.175936	0.083866	0.320571	9360.566406
5724.190188	0.901857	0.308369	419.363373
5724.191074	1.321417	0.308369	1590.139038
5724.191942	1.332740	0.308369	2746.957764
5724.192923	1.304326	0.308369	4026.501709
5724.193885	1.273733	0.308369	5251.833008
5724.194783	1.245941	0.308369	6370.688477
5724.195704	1.218223	0.308369	7492.671387
5724.196683	0.967042	0.308369	8439.405273
5724.197617	0.134041	0.308369	8564.599609
5724.198481	0.083727	0.308369	8636.939453
5724.199442	0.083811	0.308369	8717.481445
5724.200379	0.083774	0.308369	8795.978516
5724.201285	0.083789	0.308369	8871.891602
5724.202143	0.083826	0.308369	8943.814453
5724.203107	0.083771	0.308369	9024.569336
5724.204034	0.083884	0.308369	9102.330078
5724.204907	0.083796	0.308369	9175.484375
5724.205874	0.083804	0.308369	9256.522461
5725.221850	0.882096	0.320116	402.235779
5725.222730	1.318956	0.320116	1562.917236
5725.223604	1.334033	0.320116	2728.862305
5725.224604	1.305531	0.320116	4034.393311
5725.225555	1.274052	0.320116	5246.016602
5725.226477	1.245677	0.320116	6394.531250
5725.227344	1.219006	0.320116	7451.409668
5725.228390	0.941829	0.320116	8436.562500
5725.229272	0.137388	0.320116	8557.738281
5725.230152	0.083694	0.320116	8631.388672
5725.231113	0.083917	0.320116	8712.033203
5725.232087	0.083793	0.320116	8793.647461
5725.233011	0.083829	0.320116	8871.105469
5725.233891	0.083855	0.320116	8944.897461
5725.234933	0.083855	0.320116	9032.274414
5725.235823	0.083837	0.320116	9106.888672
5725.236700	0.083848	0.320116	9180.422852
5725.237558	0.083804	0.320116	9252.326172
5726.251019	0.917750	0.314082	463.463898
5726.251966	1.328024	0.314082	1721.102295
5726.252829	1.331561	0.314082	2870.239746
5726.253903	1.299100	0.314082	4265.473633
5726.254932	1.266222	0.314082	5568.416016
5726.255820	1.238698	0.314082	6668.379395
5726.256767	1.210393	0.314082	7814.621582
5726.257838	0.614601	0.314082	8472.859375
5726.258769	0.090597	0.314082	8557.205078
5726.259632	0.083760	0.314082	8629.490234
5726.260689	0.083877	0.314082	8718.148437
5726.261702	0.083855	0.314082	8803.093750
5726.262583	0.083881	0.314082	8876.992187
5726.263535	0.084001	0.314082	8956.961914
5726.264601	0.083862	0.314082	9046.359375
5726.265514	0.083840	0.314082	9122.905273
5726.266385	0.083862	0.314082	9195.949219
5726.267439	0.083950	0.314082	9284.432617
5727.286744	0.877800	0.319613	392.376740
5727.287669	1.321212	0.319613	1614.497925
5727.288533	1.332843	0.319613	2766.074219
5727.289491	1.304806	0.319613	4016.078125
5727.290452	1.274363	0.319613	5240.740723
5727.291353	1.246113	0.319613	6363.488770
5727.292274	1.218790	0.319613	7485.994629
5727.293221	0.994687	0.319613	8427.963867
5727.294137	0.147264	0.319613	8562.858398
5727.295004	0.083822	0.319613	8635.532227
5727.295971	0.083903	0.319613	8716.666016
5727.296917	0.083881	0.319613	8796.016602
5727.297794	0.083866	0.319613	8869.567383
5727.298706	0.083844	0.319613	8946.033203
5727.299658	0.083881	0.319613	9025.887695
5727.300583	0.083914	0.319613	9103.507812
5727.301467	0.083895	0.319613	9177.670898
5727.302395	0.083782	0.319613	9255.419922
5728.313797	0.854048	0.316692	368.094604
5728.314776	1.319359	0.316692	1659.747070
5728.315666	1.331785	0.316692	2845.035400
5728.316576	1.304443	0.316692	4032.078857
5728.317458	1.276084	0.316692	5157.584961
5728.318417	1.246025	0.316692	6352.523437
5728.319372	1.216959	0.316692	7514.719727
5728.320306	0.995449	0.316692	8444.469727
5728.321173	0.157262	0.316692	8580.815430
5728.322139	0.083738	0.316692	8661.706055
5728.323064	0.083833	0.316692	8739.251953
5728.323925	0.083829	0.316692	8811.428711
5728.324947	0.083815	0.316692	8897.086914
5728.325833	0.083866	0.316692	8971.392578
5728.326755	0.083862	0.316692	9048.713867
5728.327613	0.083840	0.316692	9120.648437
5728.328577	0.083833	0.316692	9201.463867
5728.329503	0.083859	0.316692	9279.117187
5729.349065	0.862771	0.320974	377.030914
5729.349927	1.315737	0.320974	1511.196533
5729.351044	1.329283	0.320974	2996.006104
5729.351947	1.301096	0.320974	4170.895996
5729.352817	1.273187	0.320974	5278.568848
5729.353813	1.242349	0.320974	6515.948242
5729.354820	1.211700	0.320974	7736.130859
5729.355725	0.840652	0.320974	8496.920898
5729.356590	0.116019	0.320974	8597.277344
5729.357683	0.083756	0.320974	8688.823242
5729.358603	0.083767	0.320974	8765.888672
5729.359479	0.083782	0.320974	8839.281250
5729.360454	0.083921	0.320974	8921.104492
5729.361468	0.083804	0.320974	9006.081055
5729.362356	0.083785	0.320974	9080.482422
5729.363217	0.083840	0.320974	9152.668945
5729.364304	0.083844	0.320974	9243.807617
5729.365214	0.083815	0.320974	9320.079102
5730.375103	0.855245	0.319242	364.334534
5730.376090	1.321263	0.319242	1668.421631
5730.377015	1.331294	0.319242	2899.868652
5730.377889	1.304480	0.319242	4039.984131
5730.378766	1.275542	0.319242	5158.634766
5730.379737	1.245505	0.319242	6368.020508
5730.380706	1.216747	0.319242	7547.048340
5730.381601	1.012614	0.319242	8453.337891
5730.382520	0.155856	0.319242	8596.569336
5730.383493	0.083701	0.319242	8678.010742
5730.384416	0.083925	0.319242	8755.472656
5730.385281	0.083807	0.319242	8827.965820
5730.386239	0.083855	0.319242	8908.298828
5730.387178	0.083793	0.319242	8986.980469
5730.388071	0.083895	0.319242	9061.899414
5730.388940	0.083884	0.319242	9134.794922
5730.389908	0.083859	0.319242	9215.969727
5730.390852	0.083774	0.319242	9295.052734
5731.412945	0.880327	0.315657	385.583313
5731.413825	1.318198	0.315657	1545.597656
5731.414747	1.332700	0.315657	2774.347168
5731.415711	1.304711	0.315657	4032.088379
5731.416633	1.274989	0.315657	5207.628418
5731.417509	1.247483	0.315657	6300.423340
5731.418492	1.218585	0.315657	7498.292480
5731.419430	0.986697	0.315657	8423.814453
5731.420353	0.147382	0.315657	8559.847656
5731.421215	0.083738	0.315657	8632.029297
5731.422193	0.083804	0.315657	8713.989258
5731.423128	0.083873	0.315657	8792.411133
5731.423984	0.083881	0.315657	8864.212891
5731.424939	0.083877	0.315657	8944.315430
5731.425898	0.083910	0.315657	9024.785156
5731.426787	0.083936	0.315657	9099.404297
5731.427675	0.083855	0.315657	9173.867187
5731.428613	0.083888	0.315657	9252.553711
5732.436438	0.875771	0.313489	393.221375
5732.437546	1.331140	0.313489	1868.124756
5732.438445	1.328112	0.313489	3062.097168
5732.439323	1.300627	0.313489	4204.047852
5732.440211	1.271451	0.313489	5333.096680
5732.441233	1.240576	0.313489	6600.965332
5732.442121	1.213795	0.313489	7678.815430
5732.442997	0.939474	0.313489	8501.794922
5732.443991	0.126218	0.313489	8627.255859
5732.444915	0.083712	0.313489	8704.605469
5732.445829	0.083925	0.313489	8781.312500
5732.446708	0.083822	0.313489	8854.992187
5732.447742	0.083855	0.313489	8941.698242
5732.448631	0.083822	0.313489	9016.215820
5732.449504	0.083873	0.313489	9089.437500
5732.450473	0.083958	0.313489	9170.791992
5732.451439	0.083815	0.313489	9251.756836
5732.452361	0.083833	0.313489	9329.050781
5733.474319	0.924858	0.306508	469.828064
5733.475191	1.323197	0.306508	1623.655762
5733.476159	1.330225	0.306508	2911.313232
5733.477224	1.297789	0.306508	4293.458984
5733.478151	1.268320	0.306508	5469.191895
5733.479023	1.240631	0.306508	6551.022461
5733.480107	1.208632	0.306508	7861.179199
5733.481107	0.603040	0.306508	8464.218750
5733.482000	0.092003	0.306508	8546.377930
5733.482981	0.083811	0.306508	8628.596680
5733.484030	0.083818	0.306508	8716.522461
5733.484935	0.083756	0.306508	8792.321289
5733.485796	0.083826	0.306508	8864.495117
5733.486903	0.083840	0.306508	8957.306641
5733.487876	0.083741	0.306508	9038.787109
5733.488740	0.083796	0.306508	9111.187500
5733.489831	0.083833	0.306508	9202.649414
5733.490853	0.083844	0.306508	9288.337891
5734.500792	0.845200	0.300015	357.519684
5734.501726	1.320626	0.300015	1590.984497
5734.502694	1.331202	0.300015	2879.588379
5734.503620	1.303462	0.300015	4086.594238
5734.504489	1.274927	0.300015	5194.505859
5734.505475	1.244974	0.300015	6422.050781
5734.506443	1.216051	0.300015	7599.187988
5734.507319	0.984807	0.300015	8461.878906
5734.508247	0.151523	0.300015	8602.492187
5734.509207	0.083679	0.300015	8682.824219
5734.510135	0.083829	0.300015	8760.618164
5734.511020	0.083796	0.300015	8834.778320
5734.511928	0.083866	0.300015	8910.928711
5734.512884	0.083793	0.300015	8991.034180
5734.513804	0.083774	0.300015	9068.106445
5734.514664	0.083785	0.300015	9140.162109
5734.515629	0.083855	0.300015	9221.082031
5734.516571	0.083796	0.300015	9300.018555
5735.533502	0.862584	0.306359	367.460876
5735.534488	1.323479	0.306359	1672.411133
5735.535412	1.331184	0.306359	2902.425293
5735.536284	1.304476	0.306359	4039.928711
5735.537205	1.275209	0.306359	5214.395996
5735.538150	1.245088	0.306359	6391.003906
5735.539102	1.216615	0.306359	7549.221191
5735.539995	1.016122	0.306359	8456.618164
5735.540914	0.155284	0.306359	8599.324219
5735.541882	0.083712	0.306359	8680.357422
5735.542811	0.083855	0.306359	8758.258789
5735.543673	0.083778	0.306359	8830.475586
5735.544647	0.083826	0.306359	8912.122070
5735.545607	0.083756	0.306359	8992.528320
5735.546496	0.083840	0.306359	9067.062500
5735.547381	0.083804	0.306359	9141.228516
5735.548317	0.083789	0.306359	9219.655273
5735.549241	0.083796	0.306359	9297.083008
5736.566303	0.912198	0.295523	480.728607
5736.567342	1.332931	0.295523	1865.643921
5736.568244	1.327441	0.295523	3062.996094
5736.569115	1.299521	0.295523	4194.879395
5736.570200	1.265669	0.295523	5568.130371
5736.571148	1.236632	0.295523	6740.457520
5736.572033	1.210060	0.295523	7811.360352
5736.573000	0.701126	0.295523	8489.348633
5736.574020	0.090319	0.295523	8581.473633
5736.574911	0.083796	0.295523	8656.135742
5736.575770	0.083800	0.295523	8728.120117
5736.576834	0.083844	0.295523	8817.330078
5736.577760	0.083778	0.295523	8894.908203
5736.578636	0.083870	0.295523	8968.377930
5736.579612	0.083928	0.295523	9050.291992
5736.580653	0.083892	0.295523	9137.623047
5736.581523	0.083862	0.295523	9210.583008
5736.582386	0.083826	0.295523	9282.924805
5737.593850	0.907357	0.307040	440.975586
5737.594726	1.321344	0.307040	1598.472900
5737.595690	1.331246	0.307040	2881.794434
5737.596750	1.299316	0.307040	4259.069824
5737.597677	1.269382	0.307040	5435.787109
5737.598539	1.242133	0.307040	6506.505371
5737.599618	1.210455	0.307040	7812.586914
5737.600637	0.648724	0.307040	8473.636719
5737.601507	0.094581	0.307040	8555.922852
5737.602484	0.083826	0.307040	8637.820312
5737.603545	0.083848	0.307040	8726.782227
5737.604448	0.083789	0.307040	8802.443359
5737.605311	0.083807	0.307040	8874.769531
5737.606382	0.083892	0.307040	8964.617187
5737.607373	0.083763	0.307040	9047.626953
5737.608265	0.083800	0.307040	9122.376953
5737.609251	0.083767	0.307040	9204.971680
5737.610308	0.083851	0.307040	9293.602539
5738.631672	0.878705	0.290020	419.142212
5738.632553	1.320952	0.290020	1582.901123
5738.633434	1.333162	0.290020	2757.416504
5738.634358	1.306644	0.290020	3964.755859
5738.635287	1.275663	0.290020	5149.846680
5738.636245	1.246128	0.290020	6343.637207
5738.637140	1.219190	0.290020	7434.812012
5738.638058	1.031319	0.290020	8381.563477
5738.639031	0.157650	0.290020	8534.957031
5738.639959	0.083782	0.290020	8612.706055
5738.640819	0.083837	0.290020	8684.805664
5738.641784	0.083822	0.290020	8765.694336
5738.642716	0.083870	0.290020	8843.860352
5738.643620	0.083906	0.290020	8919.711914
5738.644493	0.083844	0.290020	8992.908203
5738.645473	0.083873	0.290020	9075.104492
5738.646400	0.083917	0.290020	9152.895508
5738.647277	0.083910	0.290020	9226.484375
5739.651013	0.861035	0.313655	371.967194
5739.651890	1.316283	0.313655	1526.347290
5739.652759	1.334432	0.313655	2685.968994
5739.653744	1.306432	0.313655	3972.804443
5739.654673	1.276238	0.313655	5158.429199
5739.655593	1.247659	0.313655	6306.275391
5739.656455	1.221046	0.313655	7358.817383
5739.657427	1.079641	0.313655	8408.228516
5739.658367	0.182820	0.313655	8580.079102
5739.659240	0.083943	0.313655	8653.361328
5739.660292	0.083826	0.313655	8741.545898
5739.661192	0.083815	0.313655	8816.979492
5739.662115	0.083826	0.313655	8894.350586
5739.662976	0.083925	0.313655	8966.609375
5739.663960	0.083811	0.313655	9049.079102
5739.664877	0.083815	0.313655	9125.937500
5739.665795	0.083829	0.313655	9202.892578
5739.666657	0.083844	0.313655	9275.166016
5740.697540	0.866561	0.290580	376.954132
5740.698415	1.316481	0.290580	1528.874756
5740.699409	1.331620	0.290580	2852.504883
5740.700420	1.301250	0.290580	4168.068359
5740.701314	1.272473	0.290580	5305.659180
5740.702178	1.244414	0.290580	6380.833008
5740.703285	1.212693	0.290580	7723.284180
5740.704186	0.854908	0.290580	8493.556641
5740.705053	0.119572	0.290580	8597.225586
5740.706062	0.083855	0.290580	8681.834961
5740.707052	0.083800	0.290580	8764.796875
5740.707936	0.083848	0.290580	8838.917969
5740.708792	0.083873	0.290580	8910.713867
5740.709864	0.083833	0.290580	9000.583008
5740.710785	0.083804	0.290580	9077.766602
5740.711661	0.083807	0.290580	9151.181641
5740.712632	0.083892	0.290580	9232.640625
5740.713639	0.083859	0.290580	9317.085937
5741.710274	0.852272	0.317373	361.363190
5741.711135	1.314668	0.317373	1493.292358
5741.712123	1.332136	0.317373	2809.442871
5741.713073	1.304286	0.317373	4048.514404
5741.713954	1.275795	0.317373	5172.489746
5741.714867	1.247047	0.317373	6311.043945
5741.715823	1.218303	0.317373	7475.741699
5741.716717	1.058763	0.317373	8422.276367
5741.717633	0.184482	0.317373	8591.262695
5741.718568	0.083796	0.317373	8669.612305
5741.719504	0.083829	0.317373	8748.076172
5741.720399	0.083818	0.317373	8823.093750
5741.721325	0.083877	0.317373	8900.763672
5741.722278	0.083833	0.317373	8980.656250
5741.723208	0.083844	0.317373	9058.630859
5741.724071	0.083833	0.317373	9130.978516
5741.725037	0.083778	0.317373	9211.908203
5741.725960	0.083829	0.317373	9289.282227
5742.761920	0.852557	0.291612	364.894562
5742.762791	1.315334	0.291612	1510.550781
5742.763756	1.332854	0.291612	2796.754883
5742.764693	1.305059	0.291612	4019.594727
5742.765582	1.276190	0.291612	5154.127930
5742.766461	1.248424	0.291612	6251.492676
5742.767422	1.219193	0.291612	7423.137207
5742.768379	1.034762	0.291612	8413.404297
5742.769263	0.175367	0.291612	8568.428711
5742.770195	0.083943	0.291612	8646.663086
5742.771155	0.083903	0.291612	8727.209961
5742.772066	0.083844	0.291612	8803.591797
5742.772940	0.083855	0.291612	8876.880859
5742.773888	0.083822	0.291612	8956.343750
5742.774827	0.083855	0.291612	9035.083984
5742.775739	0.083829	0.291612	9111.536133
5742.776600	0.083844	0.291612	9183.725586
5742.777569	0.083840	0.291612	9264.966797
5743.770065	0.877445	0.319347	390.463043
5743.770941	1.317499	0.319347	1544.591919
5743.771803	1.333246	0.319347	2693.849609
5743.772918	1.301755	0.319347	4145.306641
5743.773838	1.272089	0.319347	5315.627930
5743.774721	1.244751	0.319347	6414.743164
5743.775701	1.215593	0.319347	7606.024414
5743.776720	0.836840	0.319347	8458.763672
5743.777605	0.113577	0.319347	8559.279297
5743.778466	0.083749	0.319347	8631.386719
5743.779551	0.083903	0.319347	8722.420898
5743.780462	0.083877	0.319347	8798.833008
5743.781331	0.083939	0.319347	8871.776367
5743.782324	0.083910	0.319347	8955.098633
5743.783340	0.083837	0.319347	9040.276367
5743.784221	0.083844	0.319347	9114.142578
5743.785083	0.083881	0.319347	9186.447266
5743.786153	0.083943	0.319347	9276.266602
5744.824245	0.844175	0.286842	354.553406
5744.825250	1.321490	0.286842	1682.651367
5744.826306	1.327471	0.286842	3084.460449
5744.827202	1.298947	0.286842	4248.316406
5744.828094	1.269741	0.286842	5380.925781
5744.829193	1.236757	0.286842	6740.121094
5744.830157	1.207881	0.286842	7904.518066
5744.831027	0.722168	0.286842	8532.804687
5744.832077	0.092479	0.286842	8629.908203
5744.833100	0.083760	0.286842	8715.594727
5744.833991	0.083793	0.286842	8790.253906
5744.834924	0.083899	0.286842	8868.531250
5744.835963	0.083818	0.286842	8955.618164
5744.836892	0.083866	0.286842	9033.529297
5744.837751	0.083811	0.286842	9105.523437
5744.838808	0.083895	0.286842	9194.201172
5744.839831	0.083793	0.286842	9279.920898
5744.840705	0.083804	0.286842	9353.165039
5745.832393	0.860955	0.314940	376.237152
5745.833258	1.315796	0.314940	1514.400635
5745.834222	1.332261	0.314940	2798.699951
5745.835186	1.303887	0.314940	4055.646973
5745.836082	1.275044	0.314940	5198.086426
5745.837004	1.246831	0.314940	6347.664551
5745.837966	1.217538	0.314940	7518.936035
5745.838898	0.985320	0.314940	8437.253906
5745.839796	0.150483	0.314940	8572.387695
5745.840734	0.083811	0.314940	8651.001953
5745.841689	0.083892	0.314940	8731.118164
5745.842612	0.083928	0.314940	8808.583984
5745.843474	0.083862	0.314940	8880.873047
5745.844417	0.083818	0.314940	8959.914062
5745.845371	0.083862	0.314940	9039.918945
5745.846263	0.083870	0.314940	9114.730469
5745.847131	0.083851	0.314940	9187.513672
5745.848099	0.083870	0.314940	9268.699219
5746.887111	0.857091	0.282121	375.405884
5746.888032	1.320304	0.282121	1591.405762
5746.888906	1.333458	0.282121	2756.848145
5746.889895	1.304385	0.282121	4046.884766
5746.890835	1.273923	0.282121	5244.373047
5746.891760	1.245443	0.282121	6396.408203
5746.892625	1.218611	0.282121	7450.506348
5746.893586	0.984152	0.282121	8396.276367
5746.894551	0.144708	0.282121	8535.919922
5746.895445	0.083734	0.282121	8610.778320
5746.896346	0.083804	0.282121	8686.285156
5746.897299	0.083866	0.282121	8766.208984
5746.898228	0.083763	0.282121	8844.025391
5746.899102	0.083870	0.282121	8917.327148
5746.900090	0.083837	0.282121	9000.158203
5746.901037	0.083745	0.282121	9079.464844
5746.901963	0.083877	0.282121	9157.134766
5746.902824	0.083851	0.282121	9229.331055
5747.894709	0.854227	0.300317	358.775452
5747.895807	1.327408	0.300317	1816.270020
5747.896723	1.328555	0.300317	3033.226074
5747.897595	1.301371	0.300317	4168.021484
5747.898585	1.270144	0.300317	5425.463867
5747.899601	1.237991	0.300317	6683.262695
5747.900497	1.211389	0.300317	7768.667480
5747.901370	0.828300	0.300317	8491.773437
5747.902463	0.096163	0.300317	8596.879883
5747.903390	0.083763	0.300317	8674.528320
5747.904269	0.083818	0.300317	8748.205078
5747.905240	0.083939	0.300317	8829.709961
5747.906257	0.083793	0.300317	8914.926758
5747.907146	0.083844	0.300317	8989.463867
5747.908008	0.083903	0.300317	9061.788086
5747.909090	0.083914	0.300317	9152.583008
5747.910007	0.083800	0.300317	9229.427734
5747.910877	0.083778	0.300317	9302.314453
5748.948018	0.922815	0.282097	502.011322
5748.949093	1.332880	0.282097	1934.856934
5748.949997	1.326160	0.282097	3133.705322
5748.950863	1.297606	0.282097	4257.432617
5748.951953	1.263647	0.282097	5634.808594
5748.952950	1.232996	0.282097	6864.104980
5748.953851	1.206328	0.282097	7951.006836
5748.954852	0.534939	0.282097	8486.480469
5748.955912	0.086191	0.282097	8577.843750
5748.956796	0.083793	0.282097	8651.916992
5748.957679	0.083782	0.282097	8725.896484
5748.958773	0.083932	0.282097	8817.717773
5748.959733	0.083767	0.282097	8898.133789
5748.960596	0.083807	0.282097	8970.459961
5748.961628	0.083899	0.282097	9057.043945
5748.962650	0.083855	0.282097	9142.744141
5748.963546	0.083829	0.282097	9217.855469
5748.964481	0.083837	0.282097	9296.243164
5749.957116	0.888534	0.298677	424.719208
5749.958001	1.320809	0.298677	1593.635498
5749.958870	1.333132	0.298677	2752.127441
5749.959788	1.306659	0.298677	3951.640137
5749.960737	1.275806	0.298677	5162.379883
5749.961675	1.246622	0.298677	6331.711426
5749.962553	1.220035	0.298677	7402.902344
5749.963512	1.016763	0.298677	8377.977539
5749.964480	0.148118	0.298677	8521.355469
5749.965405	0.083730	0.298677	8598.806641
5749.966266	0.083789	0.298677	8670.949219
5749.967228	0.083928	0.298677	8751.688477
5749.968180	0.083811	0.298677	8831.476562
5749.969057	0.083859	0.298677	8905.020508
5749.969945	0.083840	0.298677	8979.470703
5749.970874	0.083859	0.298677	9057.375000
5749.971826	0.083884	0.298677	9137.232422
5749.972717	0.083859	0.298677	9211.950195
5751.008712	0.890182	0.283216	381.888031
5751.009713	1.326702	0.283216	1709.916382
5751.010649	1.329826	0.283216	2954.633057
5751.011540	1.302777	0.283216	4115.407227
5751.012507	1.272773	0.283216	5346.179199
5751.013459	1.242286	0.283216	6528.835937
5751.014376	1.214575	0.283216	7642.601562
5751.015246	0.900132	0.283216	8425.715820
5751.016293	0.114093	0.283216	8545.170898
5751.017221	0.083716	0.283216	8622.859375
5751.018094	0.083851	0.283216	8696.061523
5751.019045	0.083811	0.283216	8775.765625
5751.019963	0.083855	0.283216	8852.744141
5751.020888	0.083822	0.283216	8930.279297
5751.021764	0.083881	0.283216	9003.758789
5751.022808	0.083763	0.283216	9091.208008
5751.023736	0.083855	0.283216	9169.025391
5751.024618	0.083818	0.283216	9242.953125
5752.020927	0.866755	0.297553	368.371033
5752.022017	1.328049	0.297553	1815.944824
5752.022936	1.328236	0.297553	3036.593750
5752.023808	1.301353	0.297553	4171.373047
5752.024782	1.270320	0.297553	5408.664551
5752.025803	1.238595	0.297553	6673.270020
5752.026694	1.211803	0.297553	7752.986328
5752.027572	0.852231	0.297553	8501.245117
5752.028632	0.099554	0.297553	8606.772461
5752.029572	0.083727	0.297553	8685.475586
5752.030447	0.083840	0.297553	8758.835937
5752.031410	0.083943	0.297553	8839.672852
5752.032426	0.083826	0.297553	8924.839844
5752.033314	0.083840	0.297553	8999.290039
5752.034176	0.083921	0.297553	9071.629883
5752.035240	0.083866	0.297553	9160.863281
5752.036178	0.083906	0.297553	9239.567383
5752.037051	0.083932	0.297553	9312.839844
5753.069512	0.860973	0.279442	374.523193
5753.070377	1.315789	0.279442	1512.680298
5753.071466	1.329239	0.279442	2960.222168
5753.072477	1.298331	0.279442	4272.834961
5753.073356	1.270228	0.279442	5389.365723
5753.074366	1.239620	0.279442	6641.382324
5753.075434	1.207815	0.279442	7931.328613
5753.076330	0.666324	0.279442	8528.355469
5753.077187	0.096892	0.279442	8611.391602
5753.078283	0.083793	0.279442	8703.228516
5753.079252	0.083789	0.279442	8784.419922
5753.080116	0.083822	0.279442	8856.841797
5753.081230	0.083859	0.279442	8950.260742
5753.082261	0.083888	0.279442	9036.749023
5753.083151	0.083800	0.279442	9111.331055
5753.084087	0.083859	0.279442	9189.822266
5753.085147	0.083837	0.279442	9278.689453
5753.086081	0.083873	0.279442	9357.027344
5754.085815	0.846405	0.299821	357.182922
5754.086740	1.318352	0.299821	1576.658447
5754.087710	1.331265	0.299821	2867.985107
5754.088640	1.303326	0.299821	4080.078613
5754.089509	1.275007	0.299821	5188.060059
5754.090483	1.245630	0.299821	6401.303711
5754.091451	1.216604	0.299821	7578.976562
5754.092339	0.991890	0.299821	8459.774414
5754.093251	0.155665	0.299821	8601.741211
5754.094185	0.083635	0.299821	8679.856445
5754.095106	0.083855	0.299821	8757.086914
5754.095978	0.083829	0.299821	8830.186523
5754.096948	0.083833	0.299821	8911.504883
5754.097901	0.083804	0.299821	8991.370117
5754.098791	0.083873	0.299821	9066.017578
5754.099699	0.083815	0.299821	9142.121094
5754.100627	0.083862	0.299821	9219.945312
5754.101588	0.083848	0.299821	9300.522461
5755.131828	0.850433	0.280828	356.331573
5755.132815	1.322395	0.280828	1661.535522
5755.133756	1.330712	0.280828	2913.735107
5755.134633	1.303942	0.280828	4057.291992
5755.135530	1.275487	0.280828	5201.403809
5755.136501	1.245655	0.280828	6410.935059
5755.137444	1.217054	0.280828	7558.617187
5755.138303	1.036747	0.280828	8449.182617
5755.139270	0.140848	0.280828	8585.382812
5755.140229	0.083698	0.280828	8665.648437
5755.141153	0.083859	0.280828	8743.133789
5755.142027	0.083877	0.280828	8816.442383
5755.142990	0.083837	0.280828	8897.176758
5755.143947	0.083807	0.280828	8977.380859
5755.144831	0.083785	0.280828	9051.447266
5755.145712	0.083888	0.280828	9125.352539
5755.146664	0.083822	0.280828	9205.151367
5755.147625	0.083895	0.280828	9285.774414
5756.149195	0.867495	0.298661	379.095367
5756.150109	1.320099	0.298661	1585.665649
5756.150986	1.332748	0.298661	2754.485352
5756.152044	1.301942	0.298661	4131.939941
5756.152939	1.273147	0.298661	5271.406250
5756.153816	1.245908	0.298661	6364.067871
5756.154798	1.216860	0.298661	7559.024902
5756.155767	0.930725	0.298661	8460.897461
5756.156690	0.127764	0.298661	8578.823242
5756.157556	0.083767	0.298661	8651.365234
5756.158596	0.083800	0.298661	8738.517578
5756.159474	0.083826	0.298661	8812.116211
5756.160338	0.083851	0.298661	8884.563477
5756.161256	0.083833	0.298661	8961.522461
5756.162240	0.083796	0.298661	9043.978516
5756.163166	0.083844	0.298661	9121.618164
5756.164043	0.083877	0.298661	9195.178711
5756.165042	0.083734	0.298661	9278.829102
5757.194251	0.912334	0.280433	458.903992
5757.195261	1.330455	0.280433	1802.663818
5757.196152	1.329163	0.280433	2986.947754
5757.197122	1.299950	0.280433	4247.899414
5757.198169	1.265973	0.280433	5573.373047
5757.199107	1.236947	0.280433	6733.629395
5757.199984	1.210642	0.280433	7795.362305
5757.200984	0.690916	0.280433	8486.277344
5757.201996	0.090773	0.280433	8578.139648
5757.202886	0.083763	0.280433	8652.689453
5757.203743	0.083844	0.280433	8724.543945
5757.204831	0.083848	0.280433	8815.770508
5757.205738	0.083829	0.280433	8891.803711
5757.206611	0.083877	0.280433	8965.028320
5757.207580	0.083877	0.280433	9046.304687
5757.208606	0.083800	0.280433	9132.283203
5757.209497	0.083866	0.280433	9207.007812
5757.210361	0.083818	0.280433	9279.426758
5758.211110	0.933713	0.295906	483.663544
5758.212073	1.329540	0.295906	1764.010376
5758.212934	1.330679	0.295906	2909.724609
5758.214016	1.297720	0.295906	4313.857422
5758.215062	1.264424	0.295906	5636.444824
5758.215945	1.236885	0.295906	6728.614258
5758.216882	1.208950	0.295906	7861.400391
5758.217954	0.554612	0.295906	8455.944336
5758.218879	0.088495	0.295906	8537.801758
5758.219737	0.083745	0.295906	8609.655273
5758.220771	0.083903	0.295906	8696.410156
5758.221791	0.083771	0.295906	8781.856445
5758.222680	0.083873	0.295906	8856.419922
5758.223639	0.083877	0.295906	8936.858398
5758.224682	0.083910	0.295906	9024.375977
5758.225602	0.083833	0.295906	9101.501953
5758.226468	0.083763	0.295906	9174.041016
5758.227537	0.083822	0.295906	9263.646484
5759.256072	0.907152	0.276260	444.504517
5759.257004	1.325098	0.276260	1679.495605
5759.257875	1.331785	0.276260	2839.479980
5759.258790	1.304484	0.276260	4033.082520
5759.259747	1.273938	0.276260	5252.241211
5759.260672	1.244938	0.276260	6403.808594
5759.261550	1.218435	0.276260	7473.594727
5759.262478	1.006410	0.276260	8407.542969
5759.263441	0.141053	0.276260	8543.377930
5759.264371	0.083712	0.276260	8621.230469
5759.265232	0.083840	0.276260	8693.416992
5759.266206	0.083851	0.276260	8775.087891
5759.267163	0.083884	0.276260	8855.365234
5759.268048	0.083910	0.276260	8929.625977
5759.268950	0.083789	0.276260	9005.204102
5759.269878	0.083844	0.276260	9083.011719
5759.270829	0.083888	0.276260	9162.789062
5759.271720	0.083884	0.276260	9237.530273
5760.274355	0.850371	0.294911	356.305481
5760.275336	1.323062	0.294911	1654.229004
5760.276265	1.331071	0.294911	2890.793457
5760.277145	1.304546	0.294911	4038.793945
5760.278089	1.275059	0.294911	5242.449219
5760.279018	1.245081	0.294911	6399.128906
5760.279963	1.216937	0.294911	7549.134766
5760.280838	1.030459	0.294911	8450.786133
5760.281766	0.157866	0.294911	8597.286133
5760.282728	0.083763	0.294911	8677.866211
5760.283618	0.083943	0.294911	8752.575195
5760.284554	0.083870	0.294911	8831.077148
5760.285500	0.083829	0.294911	8910.379883
5760.286431	0.083848	0.294911	8988.442383
5760.287308	0.083855	0.294911	9061.983398
5760.288267	0.083811	0.294911	9142.358398
5760.289216	0.083782	0.294911	9221.867187
5760.290103	0.083848	0.294911	9296.240234
5761.317940	0.947908	0.275720	504.286926
5761.318850	1.327877	0.275720	1712.655029
5761.319730	1.331023	0.275720	2883.955078
5761.320743	1.300492	0.275720	4201.353516
5761.321718	1.268335	0.275720	5437.979980
5761.322661	1.239928	0.275720	6607.231934
5761.323531	1.212583	0.275720	7662.179199
5761.324639	0.692267	0.275720	8429.210937
5761.325534	0.096855	0.275720	8515.896484
5761.326403	0.083785	0.275720	8588.706055
5761.327266	0.083921	0.275720	8661.129883
5761.328324	0.083840	0.275720	8749.833008
5761.329196	0.083840	0.275720	8822.941406
5761.330070	0.083892	0.275720	8896.262695
5761.331052	0.083851	0.275720	8978.604492
5761.331982	0.083698	0.275720	9056.443359
5761.332904	0.083826	0.275720	9133.730469
5761.333767	0.083903	0.275720	9206.138672
5762.334726	0.922013	0.293303	450.864349
5762.335612	1.322487	0.293303	1622.587524
5762.336563	1.330946	0.293303	2888.317383
5762.337626	1.298672	0.293303	4268.805664
5762.338559	1.268621	0.293303	5452.428711
5762.339423	1.241440	0.293303	6525.033203
5762.340497	1.209921	0.293303	7824.487793
5762.341521	0.620427	0.293303	8459.805664
5762.342396	0.093647	0.293303	8541.747070
5762.343396	0.083833	0.293303	8625.580078
5762.344459	0.083921	0.293303	8714.788086
5762.345344	0.083862	0.293303	8789.005859
5762.346208	0.083947	0.293303	8861.536133
5762.347301	0.084053	0.293303	8953.406250
5762.348290	0.083859	0.293303	9036.342773
5762.349177	0.083888	0.293303	9110.750977
5762.350158	0.083914	0.293303	9193.070312
5762.351204	0.083862	0.293303	9280.790039
5763.381244	0.905218	0.272687	440.841400
5763.382119	1.321582	0.272687	1597.225708
5763.383060	1.331378	0.272687	2850.052490
5763.384133	1.299261	0.272687	4244.160156
5763.385079	1.268950	0.272687	5444.586914
5763.385947	1.241481	0.272687	6522.192383
5763.387024	1.209624	0.272687	7824.957520
5763.388033	0.631736	0.272687	8462.378906
5763.388921	0.093984	0.272687	8545.836914
5763.389898	0.083829	0.272687	8627.738281
5763.390949	0.083881	0.272687	8715.896484
5763.391859	0.083855	0.272687	8792.204102
5763.392720	0.083877	0.272687	8864.421875
5763.393812	0.083936	0.272687	8956.079102
5763.394815	0.083782	0.272687	9040.112305
5763.395690	0.083837	0.272687	9113.469727
5763.396683	0.083877	0.272687	9196.759766
5763.397727	0.083866	0.272687	9284.315430
5764.395500	0.873197	0.287680	415.641785
5764.396425	1.323816	0.287680	1640.171631
5764.397350	1.330979	0.287680	2871.327148
5764.398230	1.304575	0.287680	4019.353271
5764.399168	1.274344	0.287680	5214.688477
5764.400116	1.244480	0.287680	6394.455566
5764.401052	1.216703	0.287680	7533.289551
5764.401916	1.003268	0.287680	8400.113281
5764.402898	0.148949	0.287680	8546.380859
5764.403833	0.083778	0.287680	8624.712891
5764.404696	0.083892	0.287680	8697.111328
5764.405667	0.083818	0.287680	8778.499023
5764.406564	0.083785	0.287680	8853.654297
5764.407485	0.083851	0.287680	8930.881836
5764.408357	0.083844	0.287680	9003.994141
5764.409335	0.083837	0.287680	9085.986328
5764.410285	0.083906	0.287680	9165.697266
5764.411179	0.083855	0.287680	9240.664062
5765.444036	0.855212	0.273162	367.741333
5765.444973	1.318715	0.273162	1603.376953
5765.445952	1.330664	0.273162	2906.097168
5765.446884	1.302546	0.273162	4120.070312
5765.447745	1.274220	0.273162	5217.173828
5765.448712	1.244619	0.273162	6420.720703
5765.449674	1.215784	0.273162	7590.304687
5765.450571	0.971191	0.273162	8461.462891
5765.451438	0.148597	0.273162	8590.296875
5765.452411	0.083679	0.273162	8671.716797
5765.453346	0.083903	0.273162	8750.166016
5765.454210	0.083844	0.273162	8822.607422
5765.455175	0.083925	0.273162	8903.594727
5765.456137	0.083906	0.273162	8984.312500
5765.457025	0.083873	0.273162	9058.791992
5765.457950	0.083822	0.273162	9136.327148
5765.458875	0.083881	0.273162	9213.916992
5765.459816	0.083826	0.273162	9292.796875
5766.455234	0.854722	0.285331	369.239746
5766.456103	1.315133	0.285331	1512.090332
5766.456966	1.334180	0.285331	2663.487305
5766.457983	1.305883	0.285331	3991.569824
5766.458916	1.275930	0.285331	5182.012695
5766.459801	1.247999	0.285331	6286.492187
5766.460710	1.220160	0.285331	7395.617676
5766.461656	1.025691	0.285331	8365.920898
5766.462615	0.162480	0.285331	8521.739258
5766.463501	0.083785	0.285331	8595.972656
5766.464411	0.083884	0.285331	8672.307617
5766.465370	0.083815	0.285331	8752.685547
5766.466294	0.083925	0.285331	8830.231445
5766.467158	0.083914	0.285331	8902.732422
5766.468116	0.083829	0.285331	8983.041016
5766.469041	0.083804	0.285331	9060.559570
5766.469918	0.083884	0.285331	9134.125977
5766.471011	0.083925	0.285331	9225.855469
5767.506362	0.847874	0.268215	357.802612
5767.507416	1.326522	0.268215	1755.957031
5767.508302	1.330393	0.268215	2934.685059
5767.509175	1.303909	0.268215	4072.997314
5767.510083	1.274066	0.268215	5229.849609
5767.511119	1.242521	0.268215	6517.101074
5767.512003	1.215425	0.268215	7591.536621
5767.512884	0.995035	0.268215	8468.163086
5767.513879	0.140922	0.268215	8608.379883
5767.514809	0.083752	0.268215	8686.269531
5767.515727	0.083884	0.268215	8763.275391
5767.516590	0.083859	0.268215	8835.645508
5767.517636	0.083892	0.268215	8923.396484
5767.518520	0.083829	0.268215	8997.501953
5767.519397	0.083826	0.268215	9071.016602
5767.520397	0.083903	0.268215	9154.918945
5767.521337	0.083822	0.268215	9233.711914
5767.522253	0.083859	0.268215	9310.526367
5768.516022	0.860061	0.288514	362.085693
5768.517125	1.328419	0.288514	1827.332031
5768.518032	1.328654	0.288514	3032.420898
5768.518904	1.301536	0.288514	4167.359863
5768.519880	1.270151	0.288514	5407.027344
5768.520885	1.239089	0.288514	6652.312012
5768.521776	1.212521	0.288514	7732.667969
5768.522645	0.872553	0.288514	8490.916016
5768.523725	0.100668	0.288514	8599.636719
5768.524646	0.083855	0.288514	8676.867187
5768.525524	0.084023	0.288514	8750.639648
5768.526500	0.084027	0.288514	8832.650391
5768.527508	0.083914	0.288514	8917.235352
5768.528389	0.083866	0.288514	8991.121094
5768.529249	0.083928	0.288514	9063.299805
5768.530305	0.083972	0.288514	9151.974609
5768.531235	0.083961	0.288514	9230.058594
5768.532102	0.083884	0.288514	9302.786133
5769.570779	0.882371	0.271075	402.360992
5769.571661	1.319073	0.271075	1565.783691
5769.572656	1.331067	0.271075	2890.195312
5769.573706	1.299305	0.271075	4254.465820
5769.574614	1.269950	0.271075	5407.580078
5769.575478	1.242173	0.271075	6480.817383
5769.576574	1.210481	0.271075	7807.504395
5769.577583	0.649702	0.271075	8463.053711
5769.578462	0.095361	0.271075	8546.875977
5769.579467	0.083925	0.271075	8631.219727
5769.580517	0.083873	0.271075	8719.287109
5769.581399	0.083928	0.271075	8793.311523
5769.582278	0.083910	0.271075	8867.068359
5769.583352	0.083943	0.271075	8957.222656
5769.584319	0.083921	0.271075	9038.374023
5769.585187	0.083954	0.271075	9111.246094
5769.586205	0.083925	0.271075	9196.681641
5769.587250	0.083928	0.271075	9284.386719
5770.574779	0.855275	0.285275	361.781158
5770.575757	1.321901	0.285275	1654.599976
5770.576686	1.331063	0.285275	2891.157715
5770.577567	1.304557	0.285275	4040.472168
5770.578497	1.275322	0.285275	5226.521973
5770.579460	1.245385	0.285275	6425.827148
5770.580336	1.218076	0.285275	7492.861816
5770.581209	1.028405	0.285275	8390.659180
5770.582176	0.156046	0.285275	8541.555664
5770.583134	0.083760	0.285275	8621.797852
5770.584025	0.083903	0.285275	8696.554687
5770.584937	0.083921	0.285275	8773.090820
5770.585897	0.083851	0.285275	8853.587891
5770.586819	0.083877	0.285275	8930.922852
5770.587688	0.083939	0.285275	9003.866211
5770.588662	0.083914	0.285275	9085.597656
5770.589596	0.083884	0.285275	9163.945312
5770.590487	0.083855	0.285275	9238.660156
5771.634101	0.857897	0.265109	362.032440
5771.635088	1.323691	0.265109	1668.515869
5771.636015	1.331125	0.265109	2902.469238
5771.636897	1.304513	0.265109	4053.049561
5771.637832	1.274495	0.265109	5244.702148
5771.638788	1.244927	0.265109	6434.852051
5771.639721	1.216977	0.265109	7570.291992
5771.640581	1.020663	0.265109	8448.062500
5771.641540	0.152567	0.265109	8594.374023
5771.642459	0.083763	0.265109	8671.352539
5771.643385	0.083921	0.265109	8749.063477
5771.644251	0.083892	0.265109	8821.713867
5771.645222	0.083972	0.265109	8903.250977
5771.646175	0.083888	0.265109	8983.196289
5771.647061	0.083914	0.265109	9057.543945
5771.647981	0.083925	0.265109	9134.754883
5771.648939	0.083921	0.265109	9215.151367
5771.649831	0.083932	0.265109	9290.018555
5772.636601	0.867572	0.284578	366.115387
5772.637582	1.323380	0.284578	1664.351196
5772.638508	1.331316	0.284578	2897.149658
5772.639379	1.304824	0.284578	4033.651611
5772.640342	1.274187	0.284578	5260.693359
5772.641276	1.244678	0.284578	6423.222656
5772.642197	1.217043	0.284578	7544.119629
5772.643079	1.030551	0.284578	8453.065430
5772.644031	0.151249	0.284578	8597.054687
5772.644957	0.083760	0.284578	8674.616211
5772.645888	0.083947	0.284578	8752.770508
5772.646752	0.083829	0.284578	8825.199219
5772.647730	0.083851	0.284578	8907.206055
5772.648664	0.083943	0.284578	8985.608398
5772.649525	0.083866	0.284578	9057.817383
5772.650502	0.083859	0.284578	9139.747070
5772.651446	0.083881	0.284578	9218.930664
5772.652364	0.083903	0.284578	9295.953125
5773.697013	0.901582	0.266221	422.841949
5773.697900	1.320758	0.266221	1594.354370
5773.698767	1.333389	0.266221	2750.402344
5773.699750	1.304828	0.266221	4033.048096
5773.700688	1.274161	0.266221	5228.211426
5773.701598	1.245912	0.266221	6361.991211
5773.702479	1.219054	0.266221	7435.977539
5773.703518	0.955518	0.266221	8428.760742
5773.704420	0.137157	0.266221	8552.476562
5773.705292	0.083760	0.266221	8625.514648
5773.706235	0.083965	0.266221	8704.693359
5773.707234	0.083793	0.266221	8788.402344
5773.708146	0.083859	0.266221	8864.881836
5773.709026	0.083906	0.266221	8938.719727
5773.710036	0.083895	0.266221	9023.454102
5773.710912	0.083881	0.266221	9096.933594
5773.711824	0.083928	0.266221	9173.476562
5773.712697	0.083903	0.266221	9246.723633
5774.698425	0.846584	0.282632	359.798401
5774.699438	1.323007	0.282632	1700.004150
5774.700407	1.328958	0.282632	2987.764160
5774.701289	1.301741	0.282632	4135.899414
5774.702157	1.272689	0.282632	5240.593750
5774.703278	1.239792	0.282632	6630.401367
5774.704168	1.212664	0.282632	7709.671875
5774.705049	0.896726	0.282632	8499.687500
5774.706079	0.113639	0.282632	8616.735352
5774.707069	0.083800	0.282632	8699.697266
5774.707953	0.083925	0.282632	8773.886719
5774.708810	0.083910	0.282632	8845.797852
5774.709887	0.083870	0.282632	8936.125000
5774.710782	0.083862	0.282632	9011.181641
5774.711656	0.083877	0.282632	9084.490234
5774.712656	0.083873	0.282632	9168.363281
5774.713660	0.083859	0.282632	9252.557617
5774.714549	0.083884	0.282632	9327.130859
5775.759430	0.956986	0.262499	524.428345
5775.760390	1.331166	0.262499	1802.347534
5775.761257	1.329741	0.262499	2955.232910
5775.762312	1.297277	0.262499	4323.859863
5775.763354	1.264424	0.262499	5641.389648
5775.764237	1.236870	0.262499	6733.545898
5775.765179	1.208690	0.262499	7872.131836
5775.766248	0.538916	0.262499	8448.233398
5775.767180	0.088099	0.262499	8530.341797
5775.768046	0.083749	0.262499	8602.868164
5775.769088	0.084009	0.262499	8690.405273
5775.770102	0.083866	0.262499	8775.445312
5775.770994	0.083866	0.262499	8850.253906
5775.771949	0.084012	0.262499	8930.485352
5775.773010	0.083932	0.262499	9019.537109
5775.773922	0.083895	0.262499	9096.049805
5775.774786	0.083954	0.262499	9168.585937
5775.775872	0.084060	0.262499	9259.875000
5776.761877	0.907145	0.281219	468.993866
5776.762944	1.331913	0.281219	1890.144897
5776.763868	1.326310	0.281219	3115.655273
5776.764735	1.298046	0.281219	4241.060547
5776.765839	1.263765	0.281219	5636.256836
5776.766833	1.233171	0.281219	6862.029297
5776.767736	1.206412	0.281219	7951.419922
5776.768732	0.540355	0.281219	8489.613281
5776.769784	0.086481	0.281219	8580.590820
5776.770674	0.083829	0.281219	8655.199219
5776.771539	0.083888	0.281219	8727.762695
5776.772639	0.083928	0.281219	8820.083984
5776.773589	0.083815	0.281219	8899.708008
5776.774450	0.083855	0.281219	8971.907227
5776.775490	0.083910	0.281219	9059.173828
5776.776535	0.083859	0.281219	9146.805664
5776.777414	0.083862	0.281219	9220.520508
5776.778347	0.083947	0.281219	9298.842773
5777.818624	0.906299	0.262253	440.461212
5777.819509	1.321857	0.262253	1610.304321
5777.820368	1.332762	0.262253	2755.147461
5777.821328	1.304582	0.262253	4007.546631
5777.822299	1.273971	0.262253	5244.572266
5777.823193	1.245883	0.262253	6358.391113
5777.824110	1.218721	0.262253	7475.958008
5777.825055	1.001506	0.262253	8422.381836
5777.825996	0.141273	0.262253	8555.320312
5777.826893	0.083763	0.262253	8630.456055
5777.827809	0.083826	0.262253	8707.240234
5777.828766	0.083921	0.262253	8787.552734
5777.829687	0.083892	0.262253	8864.816406
5777.830553	0.083837	0.262253	8937.418945
5777.831528	0.083855	0.262253	9019.177734
5777.832427	0.083778	0.262253	9094.494141
5777.833347	0.083844	0.262253	9171.630859
5777.834221	0.083877	0.262253	9244.939453
5778.826694	0.861064	0.281919	369.396667
5778.827632	1.321018	0.281919	1608.511719
5778.828596	1.330847	0.281919	2891.448242
5778.829476	1.304227	0.281919	4039.168457
5778.830420	1.274344	0.281919	5242.149414
5778.831379	1.244484	0.281919	6435.609375
5778.832287	1.216641	0.281919	7540.319336
5778.833170	1.006721	0.281919	8429.253906
5778.834140	0.147125	0.281919	8571.965820
5778.835094	0.083716	0.281919	8651.831055
5778.835982	0.083888	0.281919	8726.323242
5778.836853	0.083840	0.281919	8799.348633
5778.837812	0.083884	0.281919	8879.793945
5778.838769	0.083844	0.281919	8960.032227
5778.839662	0.083939	0.281919	9034.990234
5778.840583	0.083840	0.281919	9112.207031
5778.841546	0.083936	0.281919	9193.037109
5778.842467	0.083969	0.281919	9270.372070
5779.879865	0.851261	0.255038	360.934662
5779.880828	1.320088	0.255038	1632.179321
5779.881757	1.331517	0.255038	2869.158936
5779.882637	1.305062	0.255038	4017.613770
5779.883548	1.275981	0.255038	5180.032715
5779.884481	1.246238	0.255038	6342.772461
5779.885430	1.217589	0.255038	7498.264648
5779.886330	1.042797	0.255038	8436.781250
5779.887257	0.160770	0.255038	8585.815430
5779.888218	0.083741	0.255038	8666.291016
5779.889109	0.083833	0.255038	8740.986328
5779.890019	0.083840	0.255038	8817.281250
5779.890978	0.083844	0.255038	8897.687500
5779.891901	0.083888	0.255038	8975.116211
5779.892767	0.083925	0.255038	9047.794922
5779.893706	0.083855	0.255038	9126.535156
5779.894619	0.083840	0.255038	9203.081055
5779.895543	0.083903	0.255038	9280.607422
5780.889630	0.918746	0.282528	482.341797
5780.890562	1.326519	0.282528	1718.657227
5780.891477	1.329807	0.282528	2935.430664
5780.892354	1.302836	0.282528	4078.017578
5780.893311	1.272550	0.282528	5295.848145
5780.894259	1.243125	0.282528	6474.330566
5780.895160	1.215809	0.282528	7569.774902
5780.896026	0.975509	0.282528	8414.565430
5780.897000	0.134993	0.282528	8546.047852
5780.897956	0.083679	0.282528	8626.044922
5780.898848	0.083903	0.282528	8700.885742
5780.899765	0.083811	0.282528	8777.740234
5780.900722	0.083789	0.282528	8857.926758
5780.901610	0.083793	0.282528	8932.334961
5780.902492	0.083804	0.282528	9006.250000
5780.903483	0.083862	0.282528	9089.357422
5780.904427	0.083829	0.282528	9168.492187
5780.905320	0.083895	0.282528	9243.411133
5781.940205	0.874039	0.259937	411.672516
5781.941093	1.320762	0.259937	1584.508911
5781.941981	1.331957	0.259937	2767.286621
5781.943014	1.302199	0.259937	4112.457520
5781.943908	1.273510	0.259937	5250.975098
5781.944779	1.246417	0.259937	6336.604492
5781.945764	1.216783	0.259937	7535.136230
5781.946685	0.953628	0.259937	8413.427734
5781.947611	0.137853	0.259937	8541.079102
5781.948481	0.083690	0.259937	8613.889648
5781.949507	0.083822	0.259937	8699.890625
5781.950398	0.083800	0.259937	8774.556641
5781.951276	0.083844	0.259937	8848.171875
5781.952228	0.083862	0.259937	8928.008789
5781.953178	0.083833	0.259937	9007.650391
5781.954097	0.083873	0.259937	9084.729492
5781.954961	0.083811	0.259937	9157.142578
5781.956012	0.083873	0.259937	9245.292969
5782.953924	0.853978	0.271796	366.356689
5782.954886	1.316763	0.271796	1633.082397
5782.955928	1.328734	0.271796	3017.623535
5782.956815	1.301074	0.271796	4171.676270
5782.957677	1.272964	0.271796	5268.971191
5782.958710	1.240902	0.271796	6550.823242
5782.959672	1.212177	0.271796	7716.937012
5782.960554	0.882806	0.271796	8495.572266
5782.961463	0.123820	0.271796	8608.124023
5782.962549	0.083723	0.271796	8699.046875
5782.963439	0.083840	0.271796	8773.665039
5782.964302	0.083829	0.271796	8846.009766
5782.965351	0.083873	0.271796	8933.993164
5782.966323	0.083767	0.271796	9015.415039
5782.967199	0.083866	0.271796	9088.881836
5782.968083	0.083796	0.271796	9162.958008
5782.969175	0.083862	0.271796	9254.535156
5782.970055	0.083771	0.271796	9328.253906
5783.998492	0.933058	0.259361	485.190094
5783.999452	1.329778	0.259361	1761.776733
5784.000335	1.330287	0.259361	2936.419922
5784.001361	1.298833	0.259361	4269.022461
5784.002405	1.266013	0.259361	5590.740234
5784.003291	1.238075	0.259361	6687.674805
5784.004183	1.210521	0.259361	7767.459961
5784.005280	0.615791	0.259361	8442.982422
5784.006235	0.090033	0.259361	8528.963867
5784.007096	0.083752	0.259361	8601.075195
5784.008141	0.083928	0.259361	8688.780273
5784.009173	0.083818	0.259361	8775.281250
5784.010053	0.083866	0.259361	8849.083008
5784.010982	0.083844	0.259361	8926.973633
5784.012061	0.083903	0.259361	9017.504883
5784.012982	0.083870	0.259361	9094.749023
5784.013850	0.083840	0.259361	9167.522461
5784.014881	0.083910	0.259361	9254.033203
5785.020417	0.891815	0.275962	431.638550
5785.021350	1.324457	0.275962	1667.356812
5785.022229	1.331653	0.275962	2837.879639
5785.023137	1.304945	0.275962	4022.769775
5785.024079	1.273817	0.275962	5222.705566
5785.025036	1.244465	0.275962	6413.659180
5785.025910	1.217919	0.275962	7478.120117
5785.026835	0.987982	0.275962	8392.003906
5785.027811	0.141731	0.275962	8530.333008
5785.028738	0.083701	0.275962	8607.923828
5785.029615	0.083848	0.275962	8681.458008
5785.030584	0.083840	0.275962	8762.699219
5785.031520	0.083782	0.275962	8841.119141
5785.032440	0.083844	0.275962	8918.255859
5785.033301	0.083796	0.275962	8990.404297
5785.034286	0.083760	0.275962	9072.907227
5785.035245	0.083833	0.275962	9153.302734
5785.036123	0.083899	0.275962	9226.965820
5786.060748	0.862299	0.263558	381.135956
5786.061623	1.317004	0.263558	1533.514893
5786.062542	1.333022	0.263558	2758.562500
5786.063519	1.304868	0.263558	4033.418457
5786.064447	1.274714	0.263558	5216.353516
5786.065315	1.247501	0.263558	6299.184570
5786.066231	1.218984	0.263558	7415.774414
5786.067182	1.011339	0.263558	8377.557617
5786.068122	0.159888	0.263558	8527.851562
5786.069001	0.083800	0.263558	8601.511719
5786.069965	0.083873	0.263558	8682.365234
5786.070907	0.083833	0.263558	8761.335937
5786.071797	0.083855	0.263558	8835.966797
5786.072660	0.083829	0.263558	8908.311523
5786.073634	0.083818	0.263558	8989.950195
5786.074564	0.083855	0.263558	9067.935547
5786.075422	0.083844	0.263558	9139.874023
5786.076389	0.083848	0.263558	9220.955078
5787.083214	0.869202	0.274346	379.841125
5787.084091	1.317074	0.274346	1534.915039
5787.084961	1.333678	0.274346	2695.214844
5787.085957	1.305689	0.274346	3995.680664
5787.086885	1.275308	0.274346	5179.166016
5787.087776	1.247534	0.274346	6290.718750
5787.088644	1.220566	0.274346	7350.170410
5787.089619	1.051102	0.274346	8374.995117
5787.090552	0.176770	0.274346	8539.921875
5787.091410	0.084016	0.274346	8612.007812
5787.092440	0.083723	0.274346	8698.242187
5787.093318	0.083804	0.274346	8771.822266
5787.094227	0.083811	0.274346	8848.006836
5787.095104	0.083738	0.274346	8921.445312
5787.096099	0.083826	0.274346	9004.851562
5787.097030	0.083800	0.274346	9082.869141
5787.097916	0.083840	0.274346	9157.151367
5787.098829	0.083829	0.274346	9233.687500
5788.121640	0.911495	0.261150	484.915558
5788.122587	1.328408	0.261150	1742.917969
5788.123520	1.328968	0.261150	2982.845459
5788.124385	1.301715	0.261150	4108.829102
5788.125409	1.269474	0.261150	5408.770508
5788.126316	1.241254	0.261150	6534.587402
5788.127198	1.214652	0.261150	7605.910645
5788.128148	0.861896	0.261150	8424.711914
5788.129126	0.108655	0.261150	8530.976562
5788.130038	0.083683	0.261150	8607.294922
5788.130912	0.083837	0.261150	8680.568359
5788.131979	0.083829	0.261150	8770.014648
5788.132887	0.083789	0.261150	8846.094727
5788.133764	0.083888	0.261150	8919.664062
5788.134652	0.083943	0.261150	8994.205078
5788.135682	0.083815	0.261150	9080.534180
5788.136560	0.083844	0.261150	9154.149414
5788.137431	0.083833	0.261150	9227.167969
5789.145545	0.868066	0.272203	381.081146
5789.146426	1.317199	0.272203	1541.533081
5789.147293	1.332975	0.272203	2697.222168
5789.148409	1.301404	0.272203	4149.588867
5789.149332	1.271700	0.272203	5323.368164
5789.150215	1.244323	0.272203	6422.104980
5789.151222	1.214484	0.272203	7645.089844
5789.152225	0.814365	0.272203	8461.898437
5789.153117	0.108896	0.272203	8559.034180
5789.153992	0.083785	0.272203	8632.346680
5789.155003	0.083844	0.272203	8717.113281
5789.155928	0.083789	0.272203	8794.618164
5789.156798	0.083848	0.272203	8867.565430
5789.157789	0.083950	0.272203	8950.759766
5789.158796	0.083833	0.272203	9035.179687
5789.159670	0.083804	0.272203	9108.423828
5789.160541	0.083815	0.272203	9181.426758
5789.161516	0.083862	0.272203	9263.192383
5790.181385	0.914747	0.260634	457.373657
5790.182327	1.327053	0.260634	1707.457764
5790.183193	1.331323	0.260634	2860.383789
5790.184251	1.299562	0.260634	4235.320312
5790.185259	1.267284	0.260634	5512.742676
5790.186151	1.239587	0.260634	6618.454590
5790.187106	1.211228	0.260634	7775.177246
5790.188174	0.625858	0.260634	8443.593750
5790.189096	0.091615	0.260634	8528.062500
5790.189956	0.083730	0.260634	8600.070312
5790.191029	0.083877	0.260634	8690.070312
5790.192032	0.083826	0.260634	8774.147461
5790.192907	0.083826	0.260634	8847.495117
5790.193857	0.083877	0.260634	8927.177734
5790.194902	0.083855	0.260634	9014.806641
5790.195818	0.083822	0.260634	9091.587891
5790.196687	0.083837	0.260634	9164.442383
5790.197749	0.083899	0.260634	9253.542969
5791.209406	0.852759	0.271776	362.422485
5791.210370	1.316986	0.271776	1631.997070
5791.211423	1.328002	0.271776	3030.382812
5791.212345	1.299207	0.271776	4228.251465
5791.213209	1.270946	0.271776	5326.348633
5791.214305	1.238104	0.271776	6683.311035
5791.215317	1.207559	0.271776	7905.360352
5791.216199	0.716862	0.271776	8537.631836
5791.217192	0.098771	0.271776	8635.710937
5791.218237	0.083804	0.271776	8723.286133
5791.219139	0.083822	0.271776	8798.893555
5791.219997	0.083848	0.271776	8870.834961
5791.221085	0.083932	0.271776	8962.153320
5791.222074	0.083884	0.271776	9045.115234
5791.222949	0.083844	0.271776	9118.478516
5791.223935	0.083895	0.271776	9201.199219
5791.225007	0.083833	0.271776	9291.068359
5791.225891	0.083859	0.271776	9365.199219
5792.243661	0.879877	0.261448	380.986633
5792.244600	1.322618	0.261448	1622.925293
5792.245481	1.332708	0.261448	2797.040527
5792.246424	1.304454	0.261448	4027.141113
5792.247380	1.274019	0.261448	5245.102539
5792.248304	1.245417	0.261448	6395.868164
5792.249169	1.218856	0.261448	7450.178711
5792.250124	0.998687	0.261448	8403.924805
5792.251092	0.148231	0.261448	8547.412109
5792.251980	0.083837	0.261448	8621.859375
5792.252875	0.083763	0.261448	8696.828125
5792.253815	0.083818	0.261448	8775.617187
5792.254744	0.083862	0.261448	8853.525391
5792.255605	0.083807	0.261448	8925.683594
5792.256575	0.083804	0.261448	9006.973633
5792.257528	0.083807	0.261448	9086.841797
5792.258422	0.083859	0.261448	9161.811523
5792.259353	0.083778	0.261448	9239.808594
5793.270718	0.850049	0.274608	364.670959
5793.271584	1.314371	0.274608	1502.916504
5793.272574	1.332217	0.274608	2821.811035
5793.273510	1.304396	0.274608	4042.725586
5793.274395	1.275575	0.274608	5171.609375
5793.275287	1.247849	0.274608	6284.690918
5793.276236	1.218772	0.274608	7441.305664
5793.277178	1.014434	0.274608	8396.902344
5793.278077	0.167102	0.274608	8547.126953
5793.278992	0.083745	0.274608	8623.753906
5793.279961	0.083730	0.274608	8704.888672
5793.280884	0.083763	0.274608	8782.202148
5793.281762	0.083763	0.274608	8855.746094
5793.282740	0.083730	0.274608	8937.634766
5793.283665	0.083760	0.274608	9015.112305
5793.284580	0.083752	0.274608	9091.746094
5793.285439	0.083767	0.274608	9163.702148
5793.286405	0.083796	0.274608	9244.649414
5794.304437	0.858424	0.262652	361.396545
5794.305409	1.321904	0.262652	1646.287598
5794.306344	1.331100	0.262652	2890.865967
5794.307216	1.304502	0.262652	4028.391602
5794.308158	1.274509	0.262652	5228.979492
5794.309107	1.244835	0.262652	6410.328125
5794.310035	1.216871	0.262652	7539.584961
5794.310913	1.035806	0.262652	8449.022461
5794.311855	0.154878	0.262652	8594.916992
5794.312806	0.083672	0.262652	8674.489258
5794.313729	0.083800	0.262652	8751.836914
5794.314594	0.083793	0.262652	8824.317383
5794.315572	0.083818	0.262652	8906.291992
5794.316528	0.083789	0.262652	8986.394531
5794.317421	0.083848	0.262652	9061.270508
5794.318314	0.083796	0.262652	9136.100586
5794.319252	0.083774	0.262652	9214.680664
5794.320189	0.083767	0.262652	9293.170898
5795.332040	0.866880	0.274237	377.959625
5795.332913	1.315961	0.274237	1526.793213
5795.333775	1.333008	0.274237	2675.845947
5795.334840	1.303455	0.274237	4064.024902
5795.335732	1.274615	0.274237	5200.981934
5795.336611	1.247183	0.274237	6297.255371
5795.337614	1.217867	0.274237	7518.776367
5795.338557	0.973649	0.274237	8436.926758
5795.339491	0.141306	0.274237	8568.906250
5795.340348	0.083716	0.274237	8640.650391
5795.341380	0.083811	0.274237	8727.143555
5795.342279	0.083873	0.274237	8802.545898
5795.343152	0.083829	0.274237	8875.728516
5795.344085	0.083837	0.274237	8953.948242
5795.345063	0.083851	0.274237	9035.955078
5795.345981	0.083837	0.274237	9112.916992
5795.346853	0.083811	0.274237	9186.000000
5795.347946	0.083888	0.274237	9277.689453
5796.365764	0.859244	0.261955	372.052795
5796.366630	1.315503	0.261955	1511.278320
5796.367746	1.328943	0.261955	2994.378418
5796.368646	1.300968	0.261955	4165.249512
5796.369516	1.273143	0.261955	5272.884277
5796.370536	1.241737	0.261955	6539.456055
5796.371556	1.210964	0.261955	7774.639648
5796.372444	0.820525	0.261955	8503.265625
5796.373310	0.112936	0.261955	8601.068359
5796.374409	0.083771	0.261955	8693.132812
5796.375319	0.083873	0.261955	8769.457031
5796.376191	0.083818	0.261955	8842.546875
5796.377176	0.083961	0.261955	8925.249023
5796.378159	0.083829	0.261955	9007.653320
5796.379051	0.083767	0.261955	9082.374023
5796.379917	0.083807	0.261955	9154.951172
5796.381013	0.083840	0.261955	9246.839844
5796.381911	0.083782	0.261955	9322.076172
5797.393944	0.926309	0.271599	468.712158
5797.394895	1.328115	0.271599	1731.749756
5797.395759	1.330789	0.271599	2881.551270
5797.396816	1.298683	0.271599	4254.259277
5797.397860	1.265654	0.271599	5575.602539
5797.398745	1.237906	0.271599	6671.149902
5797.399710	1.209595	0.271599	7838.408691
5797.400762	0.585004	0.271599	8453.833008
5797.401688	0.089755	0.271599	8536.946289
5797.402544	0.083741	0.271599	8608.628906
5797.403594	0.083811	0.271599	8696.630859
5797.404606	0.083796	0.271599	8781.432617
5797.405490	0.083793	0.271599	8855.505859
5797.406448	0.083884	0.271599	8935.867187
5797.407503	0.083763	0.271599	9024.237305
5797.408422	0.083862	0.271599	9101.306641
5797.409287	0.083807	0.271599	9173.799805
5797.410373	0.083906	0.271599	9264.921875
5798.427652	0.906522	0.257375	446.915466
5798.428539	1.323072	0.257375	1620.480713
5798.429460	1.330507	0.257375	2845.877197
5798.430546	1.298174	0.257375	4255.693848
5798.431493	1.268243	0.257375	5456.720215
5798.432366	1.240821	0.257375	6539.957520
5798.433430	1.209100	0.257375	7826.440430
5798.434463	0.594580	0.257375	8440.641602
5798.435359	0.091201	0.257375	8522.357422
5798.436315	0.083778	0.257375	8602.449219
5798.437367	0.083884	0.257375	8690.695312
5798.438300	0.083818	0.257375	8768.897461
5798.439162	0.083921	0.257375	8841.237305
5798.440220	0.083961	0.257375	8930.068359
5798.441217	0.083881	0.257375	9013.697266
5798.442100	0.083844	0.257375	9087.731445
5798.443099	0.083939	0.257375	9171.586914
5798.444139	0.083881	0.257375	9258.822266
5799.455223	0.922288	0.270713	449.154053
5799.456185	1.325405	0.270713	1724.193848
5799.457117	1.329646	0.270713	2963.423828
5799.457980	1.302832	0.270713	4087.767822
5799.458956	1.272700	0.270713	5329.923340
5799.459866	1.242858	0.270713	6460.923828
5799.460791	1.215406	0.270713	7585.174805
5799.461673	0.960894	0.270713	8432.682617
5799.462659	0.131587	0.270713	8562.427734
5799.463607	0.083646	0.270713	8641.724609
5799.464499	0.083800	0.270713	8716.474609
5799.465407	0.083877	0.270713	8792.634766
5799.466370	0.083859	0.270713	8873.390625
5799.467255	0.083877	0.270713	8947.622070
5799.468114	0.083789	0.270713	9019.596680
5799.469089	0.083851	0.270713	9101.351562
5799.470038	0.083778	0.270713	9180.857422
5799.470907	0.083895	0.270713	9253.762695
5800.488944	0.896177	0.254583	420.306885
5800.489841	1.321930	0.254583	1606.078003
5800.490712	1.332499	0.254583	2766.684570
5800.491693	1.304279	0.254583	4046.181885
5800.492640	1.273488	0.254583	5252.174805
5800.493552	1.245106	0.254583	6387.711914
5800.494415	1.218263	0.254583	7439.072754
5800.495399	0.981654	0.254583	8405.020508
5800.496365	0.142961	0.254583	8543.121094
5800.497254	0.083738	0.254583	8617.564453
5800.498186	0.083873	0.254583	8695.734375
5800.499121	0.083895	0.254583	8774.176758
5800.500010	0.083778	0.254583	8848.655273
5800.500883	0.083811	0.254583	8921.822266
5800.501857	0.083870	0.254583	9003.511719
5800.502806	0.083789	0.254583	9083.027344
5800.503693	0.083749	0.254583	9157.312500
5800.504602	0.083859	0.254583	9233.540039
5801.516485	0.859457	0.268594	367.847504
5801.517453	1.319279	0.268594	1644.909180
5801.518391	1.330693	0.268594	2893.099609
5801.519314	1.302869	0.268594	4095.647461
5801.520179	1.274773	0.268594	5198.326172
5801.521114	1.245388	0.268594	6362.764160
5801.522058	1.216608	0.268594	7511.241699
5801.522988	0.992747	0.268594	8434.496094
5801.523869	0.154995	0.268594	8571.046875
5801.524847	0.083752	0.268594	8652.957031
5801.525774	0.083811	0.268594	8730.649414
5801.526640	0.083862	0.268594	8803.274414
5801.527642	0.083782	0.268594	8887.223633
5801.528598	0.083815	0.268594	8967.350586
5801.529522	0.083815	0.268594	9044.794922
5801.530381	0.083833	0.268594	9116.807617
5801.531360	0.083822	0.268594	9198.869141
5801.532284	0.083785	0.268594	9276.287109
5802.550759	0.894056	0.254076	416.630280
5802.551642	1.319795	0.254076	1582.009155
5802.552517	1.333301	0.254076	2748.647217
5802.553507	1.304901	0.254076	4040.499268
5802.554467	1.273696	0.254076	5263.247559
5802.555396	1.244714	0.254076	6419.586914
5802.556269	1.217875	0.254076	7482.791504
5802.557329	0.905640	0.254076	8442.769531
5802.558206	0.128166	0.254076	8555.171875
5802.559082	0.083709	0.254076	8628.500977
5802.560010	0.083851	0.254076	8706.315430
5802.561007	0.083760	0.254076	8789.824219
5802.561913	0.083804	0.254076	8865.750000
5802.562791	0.083829	0.254076	8939.352539
5802.563823	0.083782	0.254076	9025.815430
5802.564718	0.083837	0.254076	9100.849609
5802.565643	0.083800	0.254076	9178.364258
5802.566504	0.083818	0.254076	9250.532227
5803.576348	0.928883	0.266378	473.730347
5803.577363	1.331484	0.266378	1825.186890
5803.578254	1.328441	0.266378	3008.828125
5803.579244	1.297969	0.266378	4293.817383
5803.580303	1.263988	0.266378	5632.380859
5803.581216	1.235914	0.266378	6760.770508
5803.582084	1.208815	0.266378	7810.021484
5803.583184	0.557303	0.266378	8423.055664
5803.584149	0.087491	0.266378	8507.485352
5803.585033	0.083796	0.266378	8581.561523
5803.586040	0.083818	0.266378	8665.966797
5803.587105	0.083873	0.266378	8755.291992
5803.587993	0.083862	0.266378	8829.761719
5803.588876	0.083895	0.266378	8903.840820
5803.589965	0.083914	0.266378	8995.222656
5803.590925	0.083807	0.266378	9075.677734
5803.591785	0.083763	0.266378	9147.713867
5803.592807	0.083928	0.266378	9233.488281
5804.612597	0.885795	0.251316	420.752441
5804.613469	1.320000	0.251316	1571.792480
5804.614337	1.332949	0.251316	2728.792480
5804.615317	1.305000	0.251316	4007.692383
5804.616276	1.274304	0.251316	5229.750000
5804.617174	1.245824	0.251316	6348.500000
5804.618086	1.218951	0.251316	7460.183594
5804.619032	0.994285	0.251316	8400.777344
5804.619995	0.146755	0.251316	8542.102539
5804.620878	0.083796	0.251316	8616.094727
5804.621800	0.083782	0.251316	8693.341797
5804.622757	0.083778	0.251316	8773.517578
5804.623675	0.083840	0.251316	8850.483398
5804.624534	0.083866	0.251316	8922.524414
5804.625447	0.083796	0.251316	8999.030273
5804.626405	0.083826	0.251316	9079.334961
5804.627328	0.083877	0.251316	9156.752930
5804.628190	0.083840	0.251316	9229.023437
5805.636042	0.867396	0.264819	381.654358
5805.636911	1.316246	0.264819	1525.472412
5805.637846	1.332312	0.264819	2771.184082
5805.638813	1.304363	0.264819	4032.502930
5805.639733	1.274971	0.264819	5205.476074
5805.640600	1.247505	0.264819	6287.062500
5805.641570	1.218981	0.264819	7469.473633
5805.642487	1.032748	0.264819	8416.502930
5805.643370	0.175250	0.264819	8571.249023
5805.644305	0.083815	0.264819	8649.616211
5805.645251	0.083771	0.264819	8728.863281
5805.646173	0.083811	0.264819	8806.136719
5805.647035	0.083844	0.264819	8878.410156
5805.648001	0.083763	0.264819	8959.325195
5805.648947	0.083771	0.264819	9038.572266
5805.649833	0.083848	0.264819	9112.861328
5805.650748	0.083866	0.264819	9189.598633
5805.651704	0.083789	0.264819	9269.701172
5806.672833	0.849144	0.247759	363.433746
5806.673800	1.322113	0.247759	1641.916992
5806.674733	1.330822	0.247759	2883.573486
5806.675614	1.304345	0.247759	4032.701172
5806.676608	1.273132	0.247759	5298.194824
5806.677516	1.243923	0.247759	6427.677246
5806.678437	1.216278	0.247759	7547.869141
5806.679330	1.009918	0.247759	8449.726562
5806.680282	0.152563	0.247759	8594.966797
5806.681238	0.083730	0.247759	8675.012695
5806.682123	0.083903	0.247759	8749.266602
5806.683033	0.083906	0.247759	8825.621094
5806.684024	0.083925	0.247759	8908.790039
5806.684945	0.083840	0.247759	8986.006836
5806.685822	0.083848	0.247759	9059.541016
5806.686727	0.083848	0.247759	9135.422852
5806.687659	0.083848	0.247759	9213.569336
5806.688578	0.083888	0.247759	9290.662109
5807.696890	0.907577	0.261411	432.006622
5807.697767	1.320513	0.261411	1590.096313
5807.698629	1.332795	0.261411	2738.965820
5807.699705	1.301832	0.261411	4139.737305
5807.700637	1.271726	0.261411	5324.986328
5807.701510	1.244531	0.261411	6411.461914
5807.702465	1.215802	0.261411	7572.552734
5807.703514	0.822469	0.261411	8435.323242
5807.704407	0.111031	0.261411	8534.474609
5807.705271	0.083716	0.261411	8606.804687
5807.706346	0.083888	0.261411	8696.984375
5807.707297	0.083804	0.261411	8776.681641
5807.708174	0.083884	0.261411	8850.248047
5807.709106	0.083881	0.261411	8928.424805
5807.710139	0.083877	0.261411	9015.069336
5807.711020	0.083903	0.261411	9088.987305
5807.711883	0.083800	0.261411	9161.306641
5807.712938	0.083939	0.261411	9249.862305
5808.735244	0.897480	0.242925	455.022614
5808.736298	1.330675	0.242925	1857.554077
5808.737232	1.326548	0.242925	3096.549805
5808.738101	1.298796	0.242925	4225.204102
5808.739172	1.265182	0.242925	5580.213867
5808.740191	1.233827	0.242925	6837.483398
5808.741074	1.207386	0.242925	7903.605469
5808.742071	0.592500	0.242925	8494.328125
5808.743120	0.087664	0.242925	8586.287109
5808.744019	0.083734	0.242925	8661.564453
5808.744876	0.083870	0.242925	8733.440430
5808.745958	0.083954	0.242925	8824.278320
5808.746950	0.083815	0.242925	8907.422852
5808.747823	0.083873	0.242925	8980.644531
5808.748807	0.083899	0.242925	9063.201172
5808.749855	0.083877	0.242925	9151.104492
5808.750755	0.083851	0.242925	9226.570312
5808.751621	0.083939	0.242925	9299.261719
5809.757167	0.893126	0.258305	427.807465
5809.758115	1.324292	0.258305	1683.236206
5809.759043	1.330258	0.258305	2917.715332
5809.759913	1.303612	0.258305	4051.857910
5809.760879	1.273462	0.258305	5282.021973
5809.761840	1.243704	0.258305	6477.221191
5809.762724	1.216190	0.258305	7552.333496
5809.763592	0.991278	0.258305	8412.762695
5809.764573	0.141416	0.258305	8551.492187
5809.765517	0.083756	0.258305	8630.557617
5809.766405	0.083928	0.258305	8705.085937
5809.767325	0.083895	0.258305	8782.269531
5809.768284	0.083837	0.258305	8862.668945
5809.769211	0.083844	0.258305	8940.392578
5809.770074	0.083866	0.258305	9012.768555
5809.771052	0.083811	0.258305	9094.735352
5809.771972	0.083855	0.258305	9171.881836
5809.772874	0.083884	0.258305	9247.545898
5810.798529	0.857281	0.234160	370.345581
5810.799395	1.315415	0.234160	1509.494995
5810.800391	1.331550	0.234160	2835.719238
5810.801320	1.304114	0.234160	4047.240967
5810.802199	1.275835	0.234160	5168.699707
5810.803162	1.246805	0.234160	6369.373047
5810.804087	1.217809	0.234160	7495.846191
5810.804982	1.036582	0.234160	8423.586914
5810.805858	0.175664	0.234160	8577.468750
5810.806877	0.083785	0.234160	8662.845703
5810.807810	0.083910	0.234160	8741.133789
5810.808692	0.083958	0.234160	8815.184570
5810.809598	0.083899	0.234160	8891.197266
5810.810565	0.083851	0.234160	8972.281250
5810.811486	0.083862	0.234160	9049.518555
5810.812356	0.083954	0.234160	9122.558594
5810.813291	0.083910	0.234160	9201.014648
5810.814246	0.083866	0.234160	9281.106445
