time (s)	coil I (A)	last det (V)	int current (uC)
7372.314630	0.905416	0.315709	428.261871
7372.315520	1.323102	0.315709	1605.822510
7372.316486	1.329771	0.315709	2890.380859
7372.317439	1.300756	0.315709	4130.000977
7372.318371	1.271287	0.315709	5314.839844
7372.319239	1.244030	0.315709	6394.657227
7372.320285	1.213103	0.315709	7663.562988
7372.321194	0.897312	0.315709	8479.219727
7372.322070	0.126281	0.315709	8589.841797
7372.322983	0.083822	0.315709	8666.371094
7372.323991	0.083818	0.315709	8750.860352
7372.324912	0.083888	0.315709	8828.121094
7372.325768	0.083822	0.315709	8899.873047
7372.326833	0.083928	0.315709	8989.256836
7372.327746	0.083892	0.315709	9065.849609
7372.328667	0.083954	0.315709	9143.170898
7372.329530	0.083932	0.315709	9215.604492
7372.330580	0.083862	0.315709	9303.660156
7373.349895	0.914927	0.335963	456.548462
7373.350803	1.325186	0.335963	1659.816895
7373.351672	1.330920	0.335963	2816.386719
7373.352759	1.298602	0.335963	4227.967285
7373.353762	1.266445	0.335963	5498.211914
7373.354653	1.239053	0.335963	6602.208008
7373.355628	1.210111	0.335963	7782.066406
7373.356703	0.608364	0.335963	8436.057617
7373.357608	0.090557	0.335963	8518.011719
7373.358471	0.083903	0.335963	8590.419922
7373.359559	0.084005	0.335963	8681.817383
7373.360518	0.083917	0.335963	8762.293945
7373.361396	0.083943	0.335963	8835.996094
7373.362413	0.083965	0.335963	8921.388672
7373.363449	0.083939	0.335963	9008.349609
7373.364331	0.083895	0.335963	9082.345703
7373.365212	0.083921	0.335963	9156.280273
7373.366297	0.084042	0.335963	9247.465820
7374.375868	0.852488	0.331105	363.159790
7374.376818	1.318147	0.331105	1615.399414
7374.377730	1.331195	0.331105	2829.449219
7374.378652	1.303718	0.331105	4031.477539
7374.379529	1.275128	0.331105	5149.764648
7374.380509	1.244931	0.331105	6369.796387
7374.381448	1.216267	0.331105	7511.871094
7374.382375	1.004872	0.331105	8443.386719
7374.383242	0.161283	0.331105	8583.218750
7374.384220	0.083844	0.331105	8665.217773
7374.385170	0.083881	0.331105	8744.904297
7374.386039	0.084009	0.331105	8817.908203
7374.386913	0.083899	0.331105	8891.236328
7374.387881	0.083881	0.331105	8972.432617
7374.388800	0.083921	0.331105	9049.555664
7374.389662	0.083800	0.331105	9121.791016
7374.390652	0.083928	0.331105	9204.879883
7374.391595	0.083895	0.331105	9283.993164
7375.413720	0.872571	0.324692	384.803741
7375.414586	1.316906	0.324692	1525.244019
7375.415644	1.329192	0.324692	2931.529053
7375.416682	1.297672	0.324692	4278.512695
7375.417564	1.269031	0.324692	5397.797852
7375.418511	1.240031	0.324692	6572.106934
7375.419581	1.207870	0.324692	7864.527832
7375.420524	0.666057	0.324692	8492.620117
7375.421385	0.096724	0.324692	8575.899414
7375.422440	0.083877	0.324692	8664.389648
7375.423458	0.083917	0.324692	8749.817383
7375.424328	0.083899	0.324692	8822.809570
7375.425296	0.083972	0.324692	8904.094727
7375.426344	0.084064	0.324692	8992.193359
7375.427271	0.084064	0.324692	9070.120117
7375.428143	0.084031	0.324692	9143.394531
7375.429216	0.084078	0.324692	9233.610352
7375.430209	0.084031	0.324692	9317.052734
7376.441325	0.887307	0.317119	416.147064
7376.442213	1.321073	0.317119	1589.260010
7376.443081	1.332400	0.317119	2745.783203
7376.444051	1.304561	0.317119	4011.207031
7376.444973	1.273857	0.317119	5185.703613
7376.445903	1.245341	0.317119	6343.870117
7376.446769	1.218596	0.317119	7399.174316
7376.447745	1.024145	0.317119	8398.740234
7376.448695	0.159115	0.317119	8549.899414
7376.449576	0.083800	0.317119	8623.727539
7376.450475	0.083822	0.317119	8699.083984
7376.451406	0.083811	0.317119	8777.112305
7376.452364	0.083855	0.317119	8857.445312
7376.453250	0.083859	0.317119	8931.744141
7376.454156	0.083785	0.317119	9007.653320
7376.455119	0.083910	0.317119	9088.458984
7376.456044	0.083866	0.317119	9166.035156
7376.456910	0.083877	0.317119	9238.672852
7377.475636	0.935998	0.315141	512.927185
7377.476666	1.332557	0.315141	1885.461426
7377.477548	1.326804	0.315141	3055.702637
7377.478420	1.298489	0.315141	4187.984863
7377.479514	1.264845	0.315141	5571.725098
7377.480441	1.236134	0.315141	6717.621094
7377.481319	1.209917	0.315141	7779.928223
7377.482308	0.698145	0.315141	8470.393555
7377.483315	0.090630	0.315141	8561.658203
7377.484202	0.083848	0.315141	8636.031250
7377.485063	0.083972	0.315141	8708.331055
7377.486146	0.083976	0.315141	8799.277344
7377.487062	0.083837	0.315141	8876.071289
7377.487937	0.084001	0.315141	8949.572266
7377.488928	0.083987	0.315141	9032.802734
7377.489935	0.083954	0.315141	9117.344727
7377.490811	0.083950	0.315141	9190.884766
7377.491667	0.083965	0.315141	9262.758789
7378.505205	0.916362	0.308716	437.104828
7378.506093	1.321560	0.308716	1610.650146
7378.506955	1.331968	0.308716	2758.806152
7378.507917	1.303495	0.308716	4012.768066
7378.508895	1.272609	0.308716	5257.379395
7378.509793	1.244868	0.308716	6375.270996
7378.510712	1.217267	0.308716	7493.939453
7378.511672	0.980658	0.308716	8435.371094
7378.512608	0.137714	0.308716	8564.271484
7378.513481	0.083818	0.308716	8637.445312
7378.514430	0.083862	0.308716	8717.030273
7378.515363	0.083837	0.308716	8795.250000
7378.516296	0.083950	0.308716	8873.575195
7378.517156	0.083892	0.308716	8945.721680
7378.518128	0.083892	0.308716	9027.264648
7378.519076	0.083921	0.308716	9106.821289
7378.519946	0.083848	0.308716	9179.768555
7378.520855	0.083961	0.308716	9256.088867
7379.538369	0.854890	0.313594	365.892975
7379.539232	1.315009	0.313594	1500.745239
7379.540252	1.330880	0.313594	2858.243164
7379.541180	1.302949	0.313594	4067.379883
7379.542051	1.274462	0.313594	5177.436035
7379.543075	1.243055	0.313594	6450.324707
7379.543964	1.215835	0.313594	7531.202148
7379.544873	0.988575	0.313594	8429.817383
7379.545760	0.153809	0.313594	8566.246094
7379.546743	0.083789	0.313594	8648.610352
7379.547666	0.083892	0.313594	8726.041992
7379.548546	0.083914	0.313594	8799.885742
7379.549573	0.083899	0.313594	8886.049805
7379.550468	0.083903	0.313594	8961.142578
7379.551391	0.083818	0.313594	9038.506836
7379.552257	0.083862	0.313594	9111.131836
7379.553220	0.083870	0.313594	9191.898437
7379.554176	0.083800	0.313594	9272.011719
7380.568606	0.926924	0.313356	473.658112
7380.569628	1.331528	0.313356	1834.479980
7380.570516	1.327855	0.313356	3013.615479
7380.571504	1.297577	0.313356	4295.621582
7380.572556	1.263816	0.313356	5625.155762
7380.573468	1.235533	0.313356	6751.961914
7380.574332	1.208686	0.313356	7796.267090
7380.575431	0.578749	0.313356	8432.312500
7380.576431	0.087327	0.313356	8519.638672
7380.577307	0.083848	0.313356	8593.088867
7380.578324	0.083954	0.313356	8678.469727
7380.579383	0.083958	0.313356	8767.380859
7380.580247	0.083851	0.313356	8839.828125
7380.581123	0.083917	0.313356	8913.339844
7380.582231	0.083987	0.313356	9006.397461
7380.583190	0.083921	0.313356	9086.877930
7380.584066	0.083990	0.313356	9160.453125
7380.585081	0.083925	0.313356	9245.636719
7381.601223	0.862412	0.316974	372.562042
7381.602098	1.316678	0.316974	1524.655640
7381.603021	1.332477	0.316974	2754.531738
7381.603988	1.304249	0.316974	4015.740723
7381.604923	1.274033	0.316974	5206.961914
7381.605802	1.246344	0.316974	6302.498047
7381.606784	1.216271	0.316974	7496.875977
7381.607748	0.950914	0.316974	8413.557617
7381.608687	0.132803	0.316974	8538.259766
7381.609548	0.083763	0.316974	8610.379883
7381.610516	0.083881	0.316974	8691.576172
7381.611444	0.083822	0.316974	8769.363281
7381.612301	0.083914	0.316974	8841.277344
7381.613243	0.083921	0.316974	8920.331055
7381.614172	0.083822	0.316974	8998.202148
7381.615087	0.083881	0.316974	9074.953125
7381.615947	0.083881	0.316974	9147.090820
7381.616926	0.083862	0.316974	9229.192383
7382.630843	0.849137	0.325200	358.335815
7382.631832	1.319736	0.325200	1663.555054
7382.632831	1.328145	0.325200	2990.371582
7382.633719	1.300719	0.325200	4145.410156
7382.634580	1.272272	0.325200	5240.835937
7382.635672	1.239668	0.325200	6594.553223
7382.636579	1.212081	0.325200	7693.911133
7382.637453	0.909375	0.325200	8488.705078
7382.638445	0.123223	0.325200	8610.942383
7382.639451	0.083741	0.325200	8695.186523
7382.640342	0.083947	0.325200	8769.982422
7382.641208	0.083936	0.325200	8842.670898
7382.642287	0.083906	0.325200	8933.206055
7382.643220	0.083888	0.325200	9011.473633
7382.644097	0.083910	0.325200	9085.062500
7382.645067	0.083965	0.325200	9166.508789
7382.646077	0.083958	0.325200	9251.305664
7382.646966	0.083928	0.325200	9325.917969
7383.665600	0.850042	0.314142	365.517853
7383.666469	1.314998	0.314142	1508.250732
7383.667393	1.332191	0.314142	2739.195312
7383.668362	1.303678	0.314142	4002.459473
7383.669297	1.274048	0.314142	5193.694336
7383.670167	1.246381	0.314142	6278.045410
7383.671148	1.217428	0.314142	7472.342285
7383.672086	1.019978	0.314142	8429.082031
7383.672953	0.167882	0.314142	8574.635742
7383.673937	0.083855	0.314142	8657.149414
7383.674844	0.083877	0.314142	8733.225586
7383.675759	0.083976	0.314142	8810.063477
7383.676634	0.083888	0.314142	8883.465820
7383.677607	0.083811	0.314142	8965.013672
7383.678560	0.083851	0.314142	9044.923828
7383.679451	0.083855	0.314142	9119.638672
7383.680363	0.083851	0.314142	9196.111328
7383.681319	0.083914	0.314142	9276.333008
7384.694717	0.855868	0.324753	363.743866
7384.695773	1.326519	0.324753	1764.547607
7384.696651	1.329269	0.324753	2931.645508
7384.697529	1.302532	0.324753	4075.268311
7384.698474	1.272458	0.324753	5277.741699
7384.699452	1.241928	0.324753	6492.346680
7384.700371	1.214352	0.324753	7608.335937
7384.701250	0.978563	0.324753	8468.493164
7384.702299	0.121414	0.324753	8595.856445
7384.703207	0.083741	0.324753	8671.893555
7384.704126	0.083859	0.324753	8748.959961
7384.704989	0.083873	0.324753	8821.342773
7384.705997	0.083866	0.324753	8905.879883
7384.706917	0.083840	0.324753	8983.012695
7384.707790	0.083903	0.324753	9056.259766
7384.708759	0.083906	0.324753	9137.564453
7384.709674	0.083881	0.324753	9214.315430
7384.710586	0.083877	0.324753	9290.811523
7385.727506	0.895770	0.319745	456.842834
7385.728572	1.331459	0.319745	1876.177734
7385.729513	1.325376	0.319745	3123.356445
7385.730377	1.297482	0.319745	4244.380859
7385.731457	1.263702	0.319745	5609.179687
7385.732477	1.232226	0.319745	6866.050781
7385.733362	1.205760	0.319745	7933.148926
7385.734359	0.563306	0.319745	8494.764648
7385.735403	0.086880	0.319745	8585.466797
7385.736307	0.083789	0.319745	8661.211914
7385.737162	0.083928	0.319745	8732.970703
7385.738246	0.083939	0.319745	8823.960937
7385.739232	0.083873	0.319745	8906.660156
7385.740109	0.083906	0.319745	8980.246094
7385.741104	0.083939	0.319745	9063.765625
7385.742152	0.083928	0.319745	9151.722656
7385.743058	0.083870	0.319745	9227.708984
7385.743923	0.083947	0.319745	9300.322266
7386.758076	0.851726	0.328789	363.687012
7386.759041	1.322465	0.328789	1639.865356
7386.759956	1.330140	0.328789	2856.943848
7386.760885	1.302426	0.328789	4066.896973
7386.761764	1.273484	0.328789	5186.289062
7386.762773	1.243052	0.328789	6440.528320
7386.763695	1.215418	0.328789	7561.143555
7386.764581	1.004608	0.328789	8451.226562
7386.765501	0.159404	0.328789	8597.878906
7386.766427	0.083694	0.328789	8675.379883
7386.767381	0.083855	0.328789	8755.377930
7386.768255	0.083815	0.328789	8828.631836
7386.769184	0.083811	0.328789	8906.492187
7386.770110	0.083829	0.328789	8984.118164
7386.771032	0.083804	0.328789	9061.384766
7386.771912	0.083793	0.328789	9135.122070
7386.772862	0.083789	0.328789	9214.721680
7386.773792	0.083800	0.328789	9292.655273
7387.790902	0.953079	0.316128	523.240112
7387.791965	1.332843	0.316128	1940.052124
7387.792866	1.325358	0.316128	3134.199219
7387.793735	1.296416	0.316128	4260.784668
7387.794853	1.262285	0.316128	5672.019531
7387.795811	1.233058	0.316128	6853.289062
7387.796678	1.207152	0.316128	7899.889648
7387.797730	0.535983	0.316128	8463.743164
7387.798747	0.086587	0.316128	8551.801758
7387.799629	0.083877	0.316128	8625.781250
7387.800560	0.083859	0.316128	8703.853516
7387.801624	0.083921	0.316128	8793.145508
7387.802575	0.083848	0.316128	8872.884766
7387.803433	0.083899	0.316128	8944.870117
7387.804481	0.083936	0.316128	9032.834961
7387.805510	0.083851	0.316128	9119.118164
7387.806384	0.083789	0.316128	9192.349609
7387.807343	0.083870	0.316128	9272.780273
7388.820941	0.873018	0.327093	384.127747
7388.821819	1.316887	0.327093	1540.354736
7388.822752	1.331389	0.327093	2782.541016
7388.823728	1.303055	0.327093	4054.323242
7388.824656	1.273330	0.327093	5235.973633
7388.825522	1.245619	0.327093	6314.679687
7388.826483	1.216893	0.327093	7484.114258
7388.827431	0.987612	0.327093	8420.371094
7388.828327	0.151622	0.327093	8556.224609
7388.829249	0.083822	0.327093	8633.508789
7388.830169	0.083866	0.327093	8710.665039
7388.831094	0.083811	0.327093	8788.190430
7388.831956	0.083833	0.327093	8860.454102
7388.832922	0.083793	0.327093	8941.397461
7388.833872	0.083921	0.327093	9021.122070
7388.834766	0.083950	0.327093	9096.173828
7388.835694	0.083903	0.327093	9174.035156
7388.836646	0.083895	0.327093	9253.903320
7389.853113	0.847222	0.313800	356.680328
7389.854008	1.315177	0.313800	1533.763794
7389.855134	1.327698	0.313800	3028.751465
7389.856023	1.299466	0.313800	4183.977051
7389.856893	1.271675	0.313800	5290.333984
7389.857937	1.239448	0.313800	6584.317871
7389.858901	1.210558	0.313800	7751.295898
7389.859785	0.847028	0.313800	8500.068359
7389.860643	0.117275	0.313800	8600.690430
7389.861746	0.083844	0.313800	8693.169922
7389.862626	0.083848	0.313800	8766.956055
7389.863491	0.083881	0.313800	8839.512695
7389.864579	0.083866	0.313800	8930.758789
7389.865551	0.083807	0.313800	9012.219727
7389.866426	0.083848	0.313800	9085.585937
7389.867292	0.083888	0.313800	9158.232422
7389.868395	0.083895	0.313800	9250.768555
7389.869305	0.083866	0.313800	9327.086914
7390.887379	0.871567	0.318227	389.590637
7390.888256	1.317883	0.318227	1545.374268
7390.889173	1.332239	0.318227	2767.037109
7390.890146	1.304114	0.318227	4035.939941
7390.891076	1.273843	0.318227	5220.613770
7390.891943	1.246370	0.318227	6301.216309
7390.892855	1.217988	0.318227	7412.021484
7390.893825	0.999020	0.318227	8381.070312
7390.894760	0.153750	0.318227	8524.826172
7390.895638	0.083840	0.318227	8598.437500
7390.896604	0.083829	0.318227	8679.416992
7390.897558	0.083800	0.318227	8759.362305
7390.898443	0.083870	0.318227	8833.586914
7390.899304	0.083903	0.318227	8905.827148
7390.900272	0.083829	0.318227	8986.973633
7390.901207	0.083837	0.318227	9065.361328
7390.902068	0.083804	0.318227	9137.516602
7390.903043	0.083848	0.318227	9219.267578
7391.915023	0.914099	0.309304	450.650848
7391.915906	1.322135	0.309304	1618.096069
7391.916776	1.331884	0.309304	2776.834717
7391.917734	1.303345	0.309304	4025.438965
7391.918719	1.271748	0.309304	5278.110840
7391.919643	1.243246	0.309304	6426.870117
7391.920523	1.216626	0.309304	7497.500977
7391.921567	0.898879	0.309304	8435.930664
7391.922467	0.121201	0.309304	8545.011719
7391.923339	0.083782	0.309304	8618.069336
7391.924217	0.083910	0.309304	8691.742187
7391.925248	0.083862	0.309304	8778.204102
7391.926135	0.083837	0.309304	8852.567383
7391.927002	0.083954	0.309304	8925.355469
7391.927984	0.083866	0.309304	9007.711914
7391.928893	0.083884	0.309304	9083.962891
7391.929817	0.083873	0.309304	9161.461914
7391.930697	0.083892	0.309304	9235.286133
7392.952760	0.843988	0.319882	355.318939
7392.953771	1.321359	0.319882	1691.212646
7392.954829	1.326387	0.319882	3094.529785
7392.955720	1.297782	0.319882	4250.853516
7392.956592	1.268881	0.319882	5357.317383
7392.957693	1.235991	0.319882	6718.143555
7392.958651	1.207584	0.319882	7875.009277
7392.959518	0.749531	0.319882	8524.852539
7392.960558	0.094702	0.319882	8623.342773
7392.961581	0.083866	0.319882	8709.137695
7392.962463	0.083895	0.319882	8783.133789
7392.963389	0.083928	0.319882	8860.851562
7392.964470	0.083950	0.319882	8951.601562
7392.965414	0.083958	0.319882	9030.857422
7392.966275	0.083881	0.319882	9103.079102
7392.967303	0.083928	0.319882	9189.357422
7392.968317	0.083917	0.319882	9274.449219
7392.969206	0.083899	0.319882	9349.035156
7393.975261	0.874695	0.317457	390.988586
7393.976139	1.317448	0.317457	1547.707520
7393.977008	1.333180	0.317457	2706.240723
7393.977946	1.305908	0.317457	3931.182617
7393.978876	1.275337	0.317457	5117.246094
7393.979803	1.246692	0.317457	6272.929687
7393.980681	1.220240	0.317457	7344.300781
7393.981594	1.092257	0.317457	8341.531250
7393.982572	0.188811	0.317457	8526.188477
7393.983496	0.083782	0.317457	8603.602539
7393.984365	0.083895	0.317457	8676.507812
7393.985340	0.083899	0.317457	8758.309570
7393.986261	0.083815	0.317457	8835.502930
7393.987189	0.083811	0.317457	8913.279297
7393.988046	0.083859	0.317457	8985.146484
7393.989004	0.083895	0.317457	9065.518555
7393.989928	0.083895	0.317457	9143.038086
7393.990808	0.083910	0.317457	9216.878906
7395.022265	0.847463	0.315778	356.782074
7395.023204	1.315569	0.315778	1592.101196
7395.024286	1.326731	0.315778	3027.624023
7395.025229	1.297625	0.315778	4251.284180
7395.026099	1.269185	0.315778	5355.474609
7395.027176	1.236551	0.315778	6687.240234
7395.028189	1.206083	0.315778	7909.001953
7395.029085	0.674539	0.315778	8513.388672
7395.030066	0.095339	0.315778	8606.916992
7395.031109	0.083785	0.315778	8694.304687
7395.032022	0.083848	0.315778	8770.857422
7395.032884	0.083870	0.315778	8843.153320
7395.033972	0.083903	0.315778	8934.439453
7395.034958	0.083844	0.315778	9017.109375
7395.035847	0.083826	0.315778	9091.630859
7395.036849	0.083925	0.315778	9175.723633
7395.037888	0.083921	0.315778	9262.916992
7395.038784	0.083829	0.315778	9338.028320
7396.037568	0.850239	0.315081	363.052155
7396.038509	1.320472	0.315081	1605.616577
7396.039483	1.329511	0.315081	2900.559814
7396.040408	1.301576	0.315081	4104.517578
7396.041273	1.272935	0.315081	5205.605957
7396.042242	1.243286	0.315081	6410.350098
7396.043202	1.214722	0.315081	7576.482910
7396.044102	0.974257	0.315081	8453.313477
7396.045032	0.145891	0.315081	8588.992187
7396.045973	0.083881	0.315081	8667.923828
7396.046877	0.083888	0.315081	8743.758789
7396.047737	0.083870	0.315081	8815.886719
7396.048708	0.083895	0.315081	8897.348633
7396.049663	0.083870	0.315081	8977.444336
7396.050549	0.083888	0.315081	9051.769531
7396.051474	0.083866	0.315081	9129.345703
7396.052409	0.083884	0.315081	9207.777344
7396.053339	0.083910	0.315081	9285.813477
7397.090827	0.915110	0.320777	462.130493
7397.091733	1.325149	0.320777	1662.715454
7397.092600	1.330745	0.320777	2816.471191
7397.093666	1.298712	0.320777	4200.898437
7397.094677	1.266636	0.320777	5481.467285
7397.095565	1.239258	0.320777	6581.928223
7397.096556	1.209778	0.320777	7780.818359
7397.097617	0.615970	0.320777	8434.363281
7397.098532	0.090765	0.320777	8517.414062
7397.099398	0.083866	0.320777	8590.041992
7397.100499	0.083972	0.320777	8682.495117
7397.101469	0.083888	0.320777	8763.866211
7397.102348	0.083892	0.320777	8837.606445
7397.103346	0.083888	0.320777	8921.326172
7397.104409	0.083925	0.320777	9010.538086
7397.105295	0.083855	0.320777	9084.833984
7397.106154	0.083826	0.320777	9156.839844
7397.107194	0.083914	0.320777	9244.110352
7398.094776	0.862335	0.339126	362.180786
7398.095745	1.321915	0.339126	1643.116699
7398.096676	1.329902	0.339126	2881.255859
7398.097572	1.302960	0.339126	4048.708252
7398.098495	1.273070	0.339126	5223.751953
7398.099462	1.243499	0.339126	6426.214844
7398.100383	1.215663	0.339126	7545.840332
7398.101266	1.021417	0.339126	8447.751953
7398.102222	0.145430	0.339126	8586.783203
7398.103154	0.083767	0.339126	8664.854492
7398.104084	0.083873	0.339126	8742.856445
7398.104942	0.083899	0.339126	8814.841797
7398.105923	0.083840	0.339126	8897.088867
7398.106876	0.083859	0.339126	8977.005859
7398.107750	0.083877	0.339126	9050.314453
7398.108663	0.083899	0.339126	9126.914062
7398.109613	0.083859	0.339126	9206.580078
7398.110540	0.083862	0.339126	9284.320312
7399.157741	0.898989	0.303672	424.322937
7399.158631	1.320923	0.303672	1599.944336
7399.159512	1.332034	0.303672	2773.465820
7399.160494	1.303429	0.303672	4053.433105
7399.161459	1.271917	0.303672	5280.832520
7399.162393	1.242927	0.303672	6441.726562
7399.163258	1.216567	0.303672	7494.057617
7399.164307	0.902087	0.303672	8440.347656
7399.165186	0.128016	0.303672	8552.874023
7399.166050	0.083690	0.303672	8625.182617
7399.166983	0.083789	0.303672	8703.357422
7399.167971	0.083855	0.303672	8786.206055
7399.168888	0.083840	0.303672	8863.087891
7399.169760	0.083895	0.303672	8936.244141
7399.170824	0.083921	0.303672	9025.536133
7399.171726	0.083822	0.303672	9101.143555
7399.172598	0.083840	0.303672	9174.251953
7399.173461	0.083939	0.303672	9246.691406
7400.159721	0.876478	0.341978	408.438873
7400.160607	1.320088	0.341978	1578.036743
7400.161474	1.332323	0.341978	2733.160645
7400.162460	1.304286	0.341978	4019.186523
7400.163386	1.273444	0.341978	5198.395508
7400.164309	1.245004	0.341978	6347.533691
7400.165171	1.218073	0.341978	7397.512207
7400.166144	1.006692	0.341978	8377.023437
7400.167102	0.151351	0.341978	8522.017578
7400.167995	0.083811	0.341978	8596.860352
7400.168912	0.083928	0.341978	8673.822266
7400.169856	0.083862	0.341978	8752.988281
7400.170781	0.083895	0.341978	8830.591797
7400.171670	0.083906	0.341978	8905.184570
7400.172692	0.083965	0.341978	8990.997070
7400.173748	0.083881	0.341978	9079.575195
7400.174683	0.083804	0.341978	9157.931641
7400.175543	0.083965	0.341978	9230.141602
7401.217462	0.855582	0.303100	358.488953
7401.218425	1.321432	0.303100	1631.027832
7401.219355	1.330250	0.303100	2868.160645
7401.220245	1.303433	0.303100	4028.215820
7401.221166	1.273887	0.303100	5201.465332
7401.222132	1.244180	0.303100	6403.342773
7401.223057	1.216187	0.303100	7528.315430
7401.223929	1.043225	0.303100	8438.007812
7401.224885	0.152791	0.303100	8584.075195
7401.225812	0.083752	0.303100	8661.713867
7401.226743	0.083884	0.303100	8739.810547
7401.227602	0.083870	0.303100	8811.854492
7401.228570	0.083877	0.303100	8893.047852
7401.229487	0.083829	0.303100	8969.918945
7401.230366	0.083859	0.303100	9043.630859
7401.231309	0.083895	0.303100	9122.744141
7401.232240	0.083888	0.303100	9200.843750
7401.233145	0.083855	0.303100	9276.732422
7402.232252	0.852085	0.309147	362.136108
7402.233241	1.320117	0.309147	1667.731934
7402.234246	1.327687	0.309147	3002.057129
7402.235138	1.300093	0.309147	4161.739746
7402.236003	1.270946	0.309147	5261.107910
7402.237116	1.238101	0.309147	6639.113770
7402.238030	1.210331	0.309147	7745.356445
7402.238916	0.851755	0.309147	8500.011719
7402.239929	0.109977	0.309147	8611.417969
7402.240924	0.083804	0.309147	8694.802734
7402.241813	0.083994	0.309147	8769.473633
7402.242671	0.083895	0.309147	8841.456055
7402.243757	0.083972	0.309147	8932.649414
7402.244653	0.083903	0.309147	9007.826172
7402.245519	0.083998	0.309147	9080.568359
7402.246509	0.083972	0.309147	9163.701172
7402.247508	0.083870	0.309147	9247.487305
7402.248389	0.083943	0.309147	9321.441406
7403.276275	0.885732	0.314984	417.179962
7403.277166	1.320989	0.314984	1594.180908
7403.278085	1.331239	0.314984	2817.589355
7403.279012	1.302957	0.314984	4025.430176
7403.279967	1.272634	0.314984	5240.795898
7403.280849	1.245106	0.314984	6338.979492
7403.281769	1.216707	0.314984	7458.349609
7403.282728	0.978256	0.314984	8396.497070
7403.283654	0.143961	0.314984	8529.804687
7403.284534	0.083738	0.314984	8603.494141
7403.285508	0.083910	0.314984	8685.222656
7403.286470	0.083866	0.314984	8765.901367
7403.287364	0.083829	0.314984	8840.844727
7403.288249	0.083778	0.314984	8914.988281
7403.289187	0.083822	0.314984	8993.613281
7403.290137	0.083888	0.314984	9073.306641
7403.291014	0.083884	0.314984	9146.873047
7403.291924	0.083855	0.314984	9223.180664
7404.301760	0.855267	0.285396	365.199158
7404.302628	1.314873	0.285396	1506.509033
7404.303670	1.329749	0.285396	2892.106934
7404.304574	1.302133	0.285396	4069.234863
7404.305453	1.273762	0.285396	5188.872070
7404.306343	1.245278	0.285396	6297.169922
7404.307394	1.214473	0.285396	7573.580566
7404.308292	0.970730	0.285396	8445.295898
7404.309172	0.147773	0.285396	8575.336914
7404.310193	0.083796	0.285396	8660.892578
7404.311109	0.083815	0.285396	8737.666992
7404.312030	0.083895	0.285396	8814.934570
7404.312890	0.083826	0.285396	8887.024414
7404.313937	0.083870	0.285396	8974.835937
7404.314812	0.083851	0.285396	9048.206055
7404.315685	0.083851	0.285396	9121.408203
7404.316647	0.083958	0.285396	9202.175781
7404.317586	0.083774	0.285396	9280.839844
7405.337076	0.902311	0.331568	428.597626
7405.337949	1.320385	0.331568	1581.293335
7405.338915	1.329858	0.331568	2865.936523
7405.339981	1.297251	0.331568	4248.806152
7405.340913	1.267668	0.331568	5430.273437
7405.341780	1.240338	0.331568	6505.646484
7405.342848	1.208610	0.331568	7796.441406
7405.343861	0.638551	0.331568	8443.293945
7405.344758	0.093047	0.331568	8526.756836
7405.345746	0.083848	0.331568	8609.598633
7405.346813	0.083829	0.331568	8699.044922
7405.347724	0.083862	0.331568	8775.443359
7405.348589	0.083829	0.331568	8847.956055
7405.349711	0.083903	0.331568	8942.094727
7405.350675	0.083767	0.331568	9022.846680
7405.351544	0.083833	0.331568	9095.697266
7405.352622	0.083899	0.331568	9186.140625
7405.353659	0.083892	0.331568	9273.135742
7406.365664	0.878035	0.300325	395.115601
7406.366544	1.318685	0.300325	1555.558716
7406.367461	1.331876	0.300325	2776.889160
7406.368416	1.303586	0.300325	4021.813965
7406.369349	1.273447	0.300325	5209.940430
7406.370222	1.245956	0.300325	6297.660156
7406.371141	1.217754	0.300325	7416.775879
7406.372098	1.009501	0.300325	8382.868164
7406.373031	0.153955	0.300325	8526.507812
7406.373902	0.083760	0.300325	8599.462891
7406.374871	0.083811	0.300325	8680.675781
7406.375797	0.083848	0.300325	8758.318359
7406.376660	0.083862	0.300325	8830.691406
7406.377614	0.083862	0.300325	8910.696289
7406.378561	0.083903	0.300325	8990.152344
7406.379488	0.083899	0.300325	9067.926758
7406.380350	0.083877	0.300325	9140.228516
7406.381291	0.083855	0.300325	9219.135742
7407.400407	0.885450	0.340544	394.025452
7407.401289	1.318326	0.340544	1556.789307
7407.402157	1.331550	0.340544	2712.575195
7407.403274	1.299844	0.340544	4164.500977
7407.404189	1.270214	0.340544	5326.746582
7407.405068	1.243147	0.340544	6419.472656
7407.406074	1.213334	0.340544	7640.086426
7407.407080	0.808110	0.340544	8453.045898
7407.407968	0.107758	0.340544	8548.734375
7407.408828	0.083892	0.340544	8620.880859
7407.409924	0.083873	0.340544	8712.805664
7407.410820	0.083936	0.340544	8788.011719
7407.411690	0.083873	0.340544	8860.981445
7407.412682	0.084001	0.340544	8944.310547
7407.413681	0.083851	0.340544	9028.078125
7407.414561	0.083903	0.340544	9101.912109
7407.415425	0.083840	0.340544	9174.350586
7407.416413	0.083914	0.340544	9257.256836
7408.428043	0.907628	0.309501	447.460693
7408.428977	1.324856	0.309501	1684.876099
7408.429852	1.330302	0.309501	2848.889893
7408.430783	1.303206	0.309501	4062.174316
7408.431708	1.272023	0.309501	5238.795410
7408.432651	1.242891	0.309501	6410.841309
7408.433549	1.216285	0.309501	7503.065430
7408.434470	0.978336	0.309501	8404.113281
7408.435436	0.138625	0.309501	8538.025391
7408.436329	0.083760	0.309501	8612.823242
7408.437245	0.083840	0.309501	8689.621094
7408.438191	0.083855	0.309501	8768.948242
7408.439124	0.083826	0.309501	8847.157227
7408.439998	0.083844	0.309501	8920.436523
7408.440931	0.083848	0.309501	8998.666016
7408.441891	0.083811	0.309501	9079.125000
7408.442811	0.083881	0.309501	9156.294922
7408.443675	0.083815	0.309501	9228.710937
7409.465273	0.847445	0.329582	358.469269
7409.466268	1.319594	0.329582	1671.464844
7409.467211	1.328745	0.329582	2924.471680
7409.468137	1.300701	0.329582	4128.920410
7409.469006	1.272129	0.329582	5234.400391
7409.470048	1.240583	0.329582	6527.088379
7409.470945	1.213572	0.329582	7615.662109
7409.471818	0.968903	0.329582	8461.513672
7409.472778	0.143342	0.329582	8599.122070
7409.473723	0.083749	0.329582	8678.264648
7409.474639	0.083884	0.329582	8755.102539
7409.475518	0.083917	0.329582	8828.866211
7409.476549	0.083848	0.329582	8915.313477
7409.477439	0.083848	0.329582	8989.937500
7409.478315	0.083910	0.329582	9063.442383
7409.479200	0.083961	0.329582	9137.748047
7409.480246	0.083837	0.329582	9225.441406
7409.481133	0.083785	0.329582	9299.758789
7410.492372	0.879569	0.307415	392.287811
7410.493250	1.317363	0.307415	1548.932861
7410.494113	1.332345	0.307415	2698.746582
7410.495073	1.304407	0.307415	3950.977051
7410.496035	1.273986	0.307415	5176.551270
7410.496933	1.246190	0.307415	6295.629883
7410.497847	1.218666	0.307415	7409.490234
7410.498811	1.036329	0.307415	8408.511719
7410.499713	0.164191	0.307415	8556.611328
7410.500618	0.083892	0.307415	8632.533203
7410.501564	0.083899	0.307415	8711.901367
7410.502513	0.083837	0.307415	8791.461914
7410.503389	0.083925	0.307415	8864.979492
7410.504312	0.083888	0.307415	8942.408203
7410.505272	0.083851	0.307415	9022.905273
7410.506179	0.083892	0.307415	9098.995117
7410.507055	0.083906	0.307415	9172.497070
7410.508007	0.083910	0.307415	9252.378906
7411.530206	0.871527	0.326988	389.572601
7411.531085	1.317356	0.326988	1547.528564
7411.531947	1.332499	0.326988	2696.142578
7411.532985	1.302535	0.326988	4048.174316
7411.533887	1.273337	0.326988	5196.724609
7411.534798	1.245191	0.326988	6331.093262
7411.535679	1.218384	0.326988	7404.489258
7411.536647	1.014459	0.326988	8386.486328
7411.537603	0.148934	0.326988	8528.867187
7411.538491	0.083741	0.326988	8603.229492
7411.539487	0.083888	0.326988	8686.782227
7411.540391	0.083859	0.326988	8762.590820
7411.541315	0.083892	0.326988	8840.106445
7411.542175	0.083870	0.326988	8912.234375
7411.543211	0.083881	0.326988	8999.134766
7411.544081	0.083884	0.326988	9072.114258
7411.544994	0.083855	0.326988	9148.673828
7411.545869	0.083892	0.326988	9222.079102
7412.554757	0.891478	0.306065	444.847687
7412.555816	1.330228	0.306065	1853.559448
7412.556761	1.325350	0.306065	3106.015625
7412.557626	1.297848	0.306065	4228.654297
7412.558690	1.264200	0.306065	5573.763672
7412.559717	1.232787	0.306065	6839.835937
7412.560607	1.206064	0.306065	7913.233398
7412.561594	0.600813	0.306065	8506.235352
7412.562638	0.087477	0.306065	8597.561523
7412.563553	0.083899	0.306065	8674.329102
7412.564409	0.083943	0.306065	8746.184570
7412.565481	0.083855	0.306065	8836.077148
7412.566478	0.083818	0.306065	8919.644531
7412.567355	0.083870	0.306065	8993.198242
7412.568331	0.083895	0.306065	9075.080078
7412.569392	0.083884	0.306065	9164.081055
7412.570301	0.083932	0.306065	9240.375000
7412.571165	0.083906	0.306065	9312.870117
7413.596088	0.846896	0.317920	357.390015
7413.597002	1.318817	0.317920	1562.788940
7413.597978	1.330052	0.317920	2860.920166
7413.598907	1.302191	0.317920	4070.655762
7413.599771	1.273821	0.317920	5171.237305
7413.600746	1.244169	0.317920	6384.301758
7413.601676	1.216359	0.317920	7515.515137
7413.602545	1.039772	0.317920	8419.077148
7413.603499	0.161444	0.317920	8573.094727
7413.604442	0.083690	0.317920	8652.014648
7413.605342	0.083833	0.317920	8727.463867
7413.606204	0.083884	0.317920	8799.772461
7413.607163	0.083829	0.317920	8880.165039
7413.608114	0.083782	0.317920	8959.841797
7413.609001	0.083818	0.317920	9034.188477
7413.609913	0.083840	0.317920	9110.650391
7413.610886	0.083873	0.317920	9192.258789
7413.611814	0.083910	0.317920	9270.126953
7414.618036	0.856198	0.302742	358.746765
7414.619119	1.327760	0.302742	1796.710937
7414.620047	1.327280	0.302742	3028.427002
7414.620935	1.299723	0.302742	4182.581055
7414.621931	1.268361	0.302742	5445.868164
7414.622928	1.237192	0.302742	6679.349121
7414.623815	1.210642	0.302742	7753.188477
7414.624687	0.838154	0.302742	8484.058594
7414.625773	0.098654	0.302742	8591.196289
7414.626682	0.083749	0.302742	8667.324219
7414.627546	0.083884	0.302742	8739.799805
7414.628525	0.083936	0.302742	8821.972656
7414.629536	0.083910	0.302742	8906.805664
7414.630426	0.083961	0.302742	8981.531250
7414.631290	0.083895	0.302742	9054.016602
7414.632360	0.083818	0.302742	9143.702148
7414.633291	0.083888	0.302742	9221.801758
7414.634172	0.083866	0.302742	9295.687500
7415.661539	0.866880	0.320434	402.232269
7415.662430	1.319571	0.320434	1577.970459
7415.663293	1.332239	0.320434	2727.692383
7415.664266	1.304462	0.320434	3996.933594
7415.665201	1.273433	0.320434	5187.593262
7415.666138	1.244696	0.320434	6353.873535
7415.667000	1.217813	0.320434	7403.627930
7415.667965	0.997353	0.320434	8366.074219
7415.668903	0.153146	0.320434	8509.724609
7415.669778	0.083800	0.320434	8583.049805
7415.670745	0.083804	0.320434	8664.087891
7415.671688	0.083822	0.320434	8743.131836
7415.672590	0.083844	0.320434	8818.758789
7415.673452	0.083888	0.320434	8891.070312
7415.674418	0.083822	0.320434	8972.041992
7415.675365	0.083796	0.320434	9051.397461
7415.676252	0.083914	0.320434	9125.829102
7415.677183	0.083873	0.320434	9203.915039
7416.679424	0.920907	0.305836	452.165314
7416.680326	1.323069	0.305836	1645.573242
7416.681255	1.329921	0.305836	2881.069580
7416.682121	1.303012	0.305836	4009.477539
7416.683117	1.272352	0.305836	5276.740234
7416.684047	1.243348	0.305836	6433.054199
7416.684908	1.216956	0.305836	7480.853027
7416.685914	0.933984	0.305836	8420.441406
7416.686822	0.133319	0.305836	8541.495117
7416.687733	0.083760	0.305836	8617.799805
7416.688610	0.083877	0.305836	8691.360352
7416.689584	0.083873	0.305836	8773.052734
7416.690513	0.083884	0.305836	8850.981445
7416.691403	0.083884	0.305836	8925.638672
7416.692404	0.083903	0.305836	9009.625000
7416.693300	0.083826	0.305836	9084.732422
7416.694212	0.083811	0.305836	9161.167969
7416.695097	0.083892	0.305836	9235.412109
7417.727416	0.866854	0.313578	366.679352
7417.728540	1.328456	0.313578	1859.863647
7417.729498	1.325339	0.313578	3129.538574
7417.730361	1.297907	0.313578	4249.631836
7417.731413	1.264680	0.313578	5580.075195
7417.732451	1.233105	0.313578	6860.038574
7417.733330	1.206152	0.313578	7920.246582
7417.734275	0.638599	0.313578	8523.722656
7417.735336	0.088118	0.313578	8617.215820
7417.736271	0.083870	0.313578	8695.633789
7417.737139	0.083910	0.313578	8768.467773
7417.738181	0.083873	0.313578	8855.863281
7417.739209	0.083877	0.313578	8942.088867
7417.740100	0.083851	0.313578	9016.800781
7417.741042	0.083947	0.313578	9095.878906
7417.742091	0.083884	0.313578	9183.873047
7417.743017	0.083848	0.313578	9261.515625
7417.743881	0.083859	0.313578	9333.969727
7418.742767	0.888402	0.302911	421.990997
7418.743696	1.323281	0.302911	1651.319214
7418.744621	1.329749	0.302911	2881.336426
7418.745505	1.302894	0.302911	4033.094971
7418.746438	1.273634	0.302911	5221.395508
7418.747387	1.244103	0.302911	6402.048828
7418.748270	1.216655	0.302911	7476.355469
7418.749149	1.022135	0.302911	8374.812500
7418.750131	0.156174	0.302911	8528.175781
7418.751077	0.083752	0.302911	8607.405273
7418.751965	0.083892	0.302911	8681.901367
7418.752880	0.083822	0.302911	8758.598633
7418.753848	0.083844	0.302911	8839.759766
7418.754769	0.083844	0.302911	8916.980469
7418.755635	0.083862	0.302911	8989.605469
7418.756614	0.083921	0.302911	9071.763672
7418.757553	0.083822	0.302911	9150.472656
7418.758478	0.083833	0.302911	9228.018555
7419.792356	0.892500	0.317643	413.227478
7419.793238	1.319304	0.317643	1576.853760
7419.794117	1.332023	0.317643	2747.701660
7419.795105	1.303491	0.317643	4035.550781
7419.796062	1.272253	0.317643	5253.097168
7419.796986	1.243835	0.317643	6402.401367
7419.797853	1.217172	0.317643	7457.688965
7419.798902	0.930341	0.317643	8433.616211
7419.799787	0.134531	0.317643	8552.676758
7419.800656	0.083687	0.317643	8625.400391
7419.801592	0.083936	0.317643	8703.963867
7419.802579	0.083895	0.317643	8786.768555
7419.803487	0.083815	0.317643	8862.872070
7419.804363	0.083837	0.317643	8936.312500
7419.805422	0.083881	0.317643	9025.141602
7419.806332	0.083870	0.317643	9101.462891
7419.807203	0.083855	0.317643	9174.500977
7419.808059	0.083877	0.317643	9246.299805
7420.807171	0.930300	0.301517	451.195648
7420.808099	1.324523	0.301517	1680.352783
7420.808980	1.330415	0.301517	2852.448242
7420.809916	1.302491	0.301517	4071.580078
7420.810879	1.271572	0.301517	5296.104004
7420.811797	1.242634	0.301517	6436.842285
7420.812680	1.216040	0.301517	7510.605469
7420.813638	0.965603	0.301517	8435.653320
7420.814608	0.130920	0.301517	8562.646484
7420.815495	0.083789	0.301517	8636.967773
7420.816375	0.083793	0.301517	8710.705078
7420.817320	0.083826	0.301517	8789.919922
7420.818274	0.083873	0.301517	8869.934570
7420.819170	0.083899	0.301517	8945.108398
7420.820102	0.083855	0.301517	9023.261719
7420.821066	0.083829	0.301517	9104.073242
7420.821995	0.083822	0.301517	9181.944336
7420.822857	0.083888	0.301517	9254.255859
7421.857223	0.858446	0.312708	373.424042
7421.858085	1.314866	0.312708	1506.838257
7421.859090	1.330862	0.312708	2844.354492
7421.859993	1.302968	0.312708	4020.934082
7421.860888	1.274260	0.312708	5161.396973
7421.861756	1.246168	0.312708	6243.070801
7421.862764	1.216659	0.312708	7469.462891
7421.863723	0.990945	0.312708	8419.779297
7421.864616	0.150542	0.312708	8554.212891
7421.865524	0.083752	0.312708	8630.259766
7421.866490	0.083807	0.312708	8711.217773
7421.867374	0.083859	0.312708	8785.348633
7421.868301	0.083848	0.312708	8863.075195
7421.869273	0.083840	0.312708	8944.568359
7421.870198	0.083903	0.312708	9022.178711
7421.871065	0.083873	0.312708	9094.896484
7421.872006	0.083936	0.312708	9173.879883
7421.872959	0.083903	0.312708	9253.838867
7422.871589	0.933852	0.303435	483.735596
7422.872506	1.326548	0.303435	1700.179932
7422.873371	1.329518	0.303435	2850.212891
7422.874465	1.297181	0.303435	4269.329102
7422.875461	1.265083	0.303435	5529.351562
7422.876345	1.237928	0.303435	6623.680176
7422.877345	1.208416	0.303435	7832.095703
7422.878410	0.578320	0.303435	8448.006836
7422.879293	0.089934	0.303435	8527.418945
7422.880157	0.083767	0.303435	8599.793945
7422.881247	0.083903	0.303435	8691.248047
7422.882223	0.083859	0.303435	8773.093750
7422.883103	0.083862	0.303435	8846.892578
7422.884098	0.083826	0.303435	8930.298828
7422.885147	0.083851	0.303435	9018.258789
7422.886032	0.083903	0.303435	9092.512695
7422.886908	0.083840	0.303435	9165.957031
7422.887999	0.083771	0.303435	9257.350586
7423.922158	0.874552	0.314396	417.161316
7423.923096	1.324178	0.314396	1659.240723
7423.924022	1.329741	0.314396	2890.581055
7423.924892	1.303030	0.314396	4024.216797
7423.925852	1.272686	0.314396	5245.995117
7423.926784	1.243143	0.314396	6404.604492
7423.927719	1.215472	0.314396	7541.071289
7423.928580	0.990125	0.314396	8393.568359
7423.929545	0.146213	0.314396	8534.664062
7423.930502	0.083752	0.314396	8614.815430
7423.931396	0.083873	0.314396	8689.797852
7423.932308	0.083851	0.314396	8766.270508
7423.933245	0.083851	0.314396	8844.838867
7423.934180	0.083760	0.314396	8923.154297
7423.935063	0.083884	0.314396	8997.223633
7423.935989	0.083888	0.314396	9074.904297
7423.936937	0.083870	0.314396	9154.413086
7423.937814	0.083884	0.314396	9227.979492
7424.935871	0.848734	0.301219	364.106934
7424.936733	1.313994	0.301219	1496.769897
7424.937764	1.329833	0.301219	2867.827393
7424.938739	1.300803	0.301219	4136.110352
7424.939604	1.272429	0.301219	5236.761719
7424.940471	1.244114	0.301219	6315.408203
7424.941610	1.211840	0.301219	7695.693359
7424.942517	0.864818	0.301219	8480.083008
7424.943382	0.120381	0.301219	8584.212891
7424.944433	0.083939	0.301219	8672.432617
7424.945399	0.083925	0.301219	8753.503906
7424.946272	0.083881	0.301219	8826.731445
7424.947150	0.083987	0.301219	8900.471680
7424.948266	0.083939	0.301219	8994.147461
7424.949159	0.083837	0.301219	9069.013672
7424.950020	0.083958	0.301219	9141.300781
7424.951080	0.084012	0.301219	9230.353516
7424.952046	0.083917	0.301219	9311.417969
7425.984544	0.930425	0.313715	476.377502
7425.985474	1.326771	0.313715	1710.274658
7425.986338	1.329653	0.313715	2859.095215
7425.987414	1.297390	0.313715	4255.086914
7425.988426	1.265123	0.313715	5535.391602
7425.989307	1.237976	0.313715	6626.048828
7425.990294	1.208921	0.313715	7819.253906
7425.991356	0.585179	0.313715	8440.714844
7425.992255	0.090238	0.313715	8521.838867
7425.993113	0.083899	0.313715	8593.824219
7425.994194	0.083932	0.313715	8684.554687
7425.995191	0.083752	0.313715	8768.055664
7425.996082	0.083822	0.313715	8842.741211
7425.997076	0.083899	0.313715	8926.136719
7425.998121	0.083983	0.313715	9013.899414
7425.999013	0.083914	0.313715	9088.750000
7425.999873	0.083811	0.313715	9160.827148
7426.000984	0.083917	0.313715	9254.059570
7427.000755	0.843080	0.299547	354.936615
7427.001721	1.321318	0.299547	1631.330200
7427.002624	1.330602	0.299547	2832.863770
7427.003550	1.303213	0.299547	4039.638916
7427.004419	1.274205	0.299547	5146.923340
7427.005430	1.243865	0.299547	6404.470703
7427.006362	1.215721	0.299547	7537.522949
7427.007242	1.027123	0.299547	8441.390625
7427.008172	0.167659	0.299547	8597.313477
7427.009135	0.083804	0.299547	8678.016602
7427.010010	0.083866	0.299547	8751.399414
7427.010873	0.083738	0.299547	8823.665039
7427.011906	0.083859	0.299547	8910.291016
7427.012828	0.083895	0.299547	8987.642578
7427.013710	0.083983	0.299547	9061.715820
7427.014598	0.083928	0.299547	9136.244141
7427.015570	0.083873	0.299547	9217.768555
7427.016512	0.083859	0.299547	9296.763672
7428.046265	0.865477	0.325316	366.962372
7428.047360	1.328595	0.325316	1821.773926
7428.048354	1.324417	0.325316	3138.243896
7428.049253	1.296350	0.325316	4303.662598
7428.050259	1.264427	0.325316	5575.676758
7428.051323	1.232216	0.325316	6886.753906
7428.052208	1.205281	0.325316	7953.427246
7428.053108	0.632271	0.325316	8522.470703
7428.054218	0.087352	0.325316	8619.431641
7428.055170	0.083844	0.325316	8699.250977
7428.056038	0.083848	0.325316	8772.030273
7428.057088	0.083903	0.325316	8860.127930
7428.058118	0.083793	0.325316	8946.434570
7428.059006	0.083917	0.325316	9020.953125
7428.059939	0.083925	0.325316	9099.254883
7428.060992	0.083906	0.325316	9187.608398
7428.061920	0.083815	0.325316	9265.388672
7428.062782	0.083855	0.325316	9337.671875
7429.066187	0.880748	0.301106	378.721771
7429.067126	1.322036	0.301106	1620.113770
7429.068001	1.331737	0.301106	2785.383789
7429.068928	1.303850	0.301106	3994.052734
7429.069898	1.273220	0.301106	5229.076172
7429.070796	1.245209	0.301106	6347.273437
7429.071731	1.217201	0.301106	7485.356445
7429.072700	0.980215	0.301106	8435.184570
7429.073633	0.142548	0.301106	8568.181641
7429.074494	0.083815	0.301106	8640.345703
7429.075444	0.083943	0.301106	8720.091797
7429.076363	0.083910	0.301106	8797.205078
7429.077299	0.083928	0.301106	8875.761719
7429.078162	0.083895	0.301106	8948.163086
7429.079133	0.083903	0.301106	9029.632812
7429.080083	0.083866	0.301106	9109.305664
7429.080973	0.084005	0.301106	9184.070312
7429.081889	0.083976	0.301106	9260.992187
7430.110136	0.852924	0.328358	359.080811
7430.111191	1.326368	0.328358	1758.399536
7430.112084	1.328767	0.328358	2944.988525
7430.112960	1.302001	0.328358	4085.541016
7430.113908	1.271949	0.328358	5291.349121
7430.114904	1.241173	0.328358	6527.557617
7430.115830	1.213246	0.328358	7651.023437
7430.116692	0.958641	0.328358	8477.372070
7430.117788	0.109490	0.328358	8597.373047
7430.118683	0.083822	0.328358	8672.393555
7430.119555	0.083884	0.328358	8745.541016
7430.120440	0.083881	0.328358	8819.775391
7430.121484	0.083881	0.328358	8907.346680
7430.122378	0.083906	0.328358	8982.358398
7430.123251	0.083862	0.328358	9055.570312
7430.124259	0.083866	0.328358	9140.107422
7430.125179	0.083840	0.328358	9217.240234
7430.126103	0.083884	0.328358	9294.749023
7431.132712	0.921962	0.294037	495.093384
7431.133793	1.332495	0.294037	1935.520630
7431.134764	1.322787	0.294037	3219.946777
7431.135631	1.295061	0.294037	4342.764648
7431.136722	1.260634	0.294037	5718.115723
7431.137761	1.228989	0.294037	6995.035645
7431.138653	1.202252	0.294037	8067.444824
7431.139601	0.502372	0.294037	8543.693359
7431.140650	0.085646	0.294037	8633.536133
7431.141606	0.083815	0.294037	8713.663086
7431.142466	0.083833	0.294037	8785.759766
7431.143518	0.083815	0.294037	8873.932617
7431.144525	0.083800	0.294037	8958.319336
7431.145409	0.083840	0.294037	9032.434570
7431.146376	0.083925	0.294037	9113.589844
7431.147410	0.083870	0.294037	9200.311523
7431.148331	0.083881	0.294037	9277.565430
7431.149188	0.083763	0.294037	9349.350586
7432.171963	0.852407	0.337240	360.568268
7432.172838	1.314822	0.337240	1511.037354
7432.173702	1.332795	0.337240	2662.572510
7432.174712	1.304443	0.337240	3980.060303
7432.175635	1.274176	0.337240	5156.125000
7432.176569	1.245535	0.337240	6319.454102
7432.177438	1.218907	0.337240	7378.684570
7432.178409	1.029247	0.337240	8378.083008
7432.179373	0.161763	0.337240	8534.022461
7432.180255	0.083829	0.337240	8607.959961
7432.181160	0.083947	0.337240	8683.931641
7432.182116	0.083866	0.337240	8764.107422
7432.183050	0.083939	0.337240	8842.506836
7432.183926	0.083910	0.337240	8916.011719
7432.184846	0.083899	0.337240	8993.199219
7432.185798	0.083859	0.337240	9073.032227
7432.186731	0.083877	0.337240	9151.289062
7432.187593	0.083947	0.337240	9223.651367
7433.196563	0.899996	0.290411	461.698120
7433.197597	1.330378	0.290411	1837.309448
7433.198479	1.327229	0.290411	3007.925293
7433.199343	1.300056	0.290411	4131.173828
7433.200418	1.266409	0.290411	5492.562988
7433.201358	1.237379	0.290411	6655.699219
7433.202228	1.210884	0.290411	7709.167969
7433.203175	0.780322	0.290411	8448.132812
7433.204231	0.094226	0.290411	8547.635742
7433.205121	0.083778	0.290411	8622.198242
7433.205990	0.083906	0.290411	8695.112305
7433.207022	0.083884	0.290411	8781.680664
7433.207973	0.083877	0.290411	8861.447266
7433.208852	0.083884	0.290411	8935.181641
7433.209763	0.083921	0.290411	9011.633789
7433.210830	0.083939	0.290411	9101.197266
7433.211714	0.083899	0.290411	9175.364258
7433.212575	0.084012	0.290411	9247.699219
7434.237394	0.876035	0.320386	385.455475
7434.238270	1.317231	0.320386	1539.350220
7434.239253	1.330426	0.320386	2847.159180
7434.240192	1.301979	0.320386	4069.717285
7434.241074	1.273564	0.320386	5193.000977
7434.241986	1.245769	0.320386	6329.142578
7434.242952	1.216802	0.320386	7504.573242
7434.243887	1.000481	0.320386	8440.023437
7434.244754	0.160770	0.320386	8579.411133
7434.245699	0.083771	0.320386	8658.574219
7434.246644	0.083932	0.320386	8737.889648
7434.247574	0.083928	0.320386	8815.943359
7434.248456	0.083936	0.320386	8889.974609
7434.249419	0.083906	0.320386	8970.776367
7434.250342	0.083921	0.320386	9048.235352
7434.251221	0.083965	0.320386	9122.040039
7434.252180	0.083950	0.320386	9202.547852
7434.253109	0.083910	0.320386	9280.500000
7435.259855	0.873021	0.277299	380.637238
7435.260824	1.321307	0.277299	1660.984009
7435.261753	1.329591	0.277299	2896.174072
7435.262634	1.302792	0.277299	4043.933594
7435.263601	1.272184	0.277299	5274.135254
7435.264537	1.242089	0.277299	6436.730469
7435.265462	1.214659	0.277299	7560.290527
7435.266354	0.992025	0.277299	8445.176758
7435.267319	0.150242	0.277299	8590.160156
7435.268250	0.083738	0.277299	8668.120117
7435.269160	0.083837	0.277299	8744.411133
7435.270033	0.083859	0.277299	8817.620117
7435.271008	0.083833	0.277299	8899.357422
7435.271950	0.083855	0.277299	8978.348633
7435.272831	0.083855	0.277299	9052.224609
7435.274000	0.083881	0.277299	9150.281250
7435.274892	0.083851	0.277299	9225.076172
7435.275810	0.083881	0.277299	9302.078125
7436.303876	0.908873	0.314214	448.074554
7436.304754	1.321666	0.314214	1608.497559
7436.305681	1.329598	0.314214	2841.035156
7436.306760	1.297482	0.314214	4241.017578
7436.307717	1.267134	0.314214	5453.664551
7436.308589	1.239792	0.314214	6534.763672
7436.309641	1.208529	0.314214	7806.136230
7436.310668	0.615260	0.314214	8438.007812
7436.311560	0.092087	0.314214	8520.149414
7436.312516	0.083895	0.314214	8600.353516
7436.313580	0.083888	0.314214	8689.610352
7436.314507	0.083833	0.314214	8767.323242
7436.315370	0.083873	0.314214	8839.706055
7436.316456	0.083965	0.314214	8930.891602
7436.317449	0.083903	0.314214	9014.207031
7436.318330	0.083943	0.314214	9088.161133
7436.319331	0.083994	0.314214	9172.239258
7436.320384	0.083884	0.314214	9260.569336
7437.320680	0.878752	0.281932	413.892395
7437.321641	1.323900	0.281932	1686.160400
7437.322575	1.328888	0.281932	2927.341797
7437.323452	1.301968	0.281932	4069.167480
7437.324389	1.271356	0.281932	5260.428223
7437.325335	1.242166	0.281932	6435.516602
7437.326277	1.214359	0.281932	7579.442871
7437.327145	0.975370	0.281932	8426.063477
7437.328133	0.137091	0.281932	8561.509766
7437.329082	0.083767	0.281932	8641.004883
7437.329951	0.083903	0.281932	8713.916016
7437.330832	0.083859	0.281932	8787.795898
7437.331805	0.083958	0.281932	8869.486328
7437.332748	0.083859	0.281932	8948.565430
7437.333643	0.083877	0.281932	9023.635742
7437.334559	0.083818	0.281932	9100.413086
7437.335522	0.083936	0.281932	9181.243164
7437.336412	0.083965	0.281932	9255.971680
7438.371264	0.853348	0.305558	365.233093
7438.372133	1.314203	0.305558	1507.275391
7438.373168	1.328987	0.305558	2882.776855
7438.374129	1.300232	0.305558	4132.299805
7438.375008	1.272089	0.305558	5250.465820
7438.375937	1.243022	0.305558	6405.233398
7438.377022	1.211008	0.305558	7719.177246
7438.377923	0.852195	0.305558	8487.004883
7438.378786	0.118026	0.305558	8588.861328
7438.379827	0.083763	0.305558	8676.058594
7438.380804	0.083870	0.305558	8757.999023
7438.381683	0.083895	0.305558	8831.743164
7438.382609	0.083925	0.305558	8909.457031
7438.383665	0.083866	0.305558	8998.019531
7438.384545	0.083822	0.305558	9071.783203
7438.385408	0.083884	0.305558	9144.175781
7438.386442	0.083862	0.305558	9230.889648
7438.387397	0.083877	0.305558	9310.992187
7439.378439	0.897393	0.292454	439.722351
7439.379353	1.323959	0.292454	1649.820557
7439.380238	1.330598	0.292454	2827.399902
7439.381158	1.303140	0.292454	4026.288330
7439.382120	1.272338	0.292454	5250.277344
7439.383044	1.243370	0.292454	6399.151367
7439.383924	1.216714	0.292454	7469.859375
7439.384904	0.950687	0.292454	8401.533203
7439.385862	0.129961	0.292454	8526.036133
7439.386787	0.083727	0.292454	8603.483398
7439.387648	0.083906	0.292454	8675.726562
7439.388617	0.083818	0.292454	8756.946289
7439.389573	0.083873	0.292454	8837.128906
7439.390437	0.083848	0.292454	8909.573242
7439.391314	0.083873	0.292454	8983.129883
7439.392287	0.083741	0.292454	9064.610352
7439.393209	0.083895	0.292454	9141.961914
7439.394068	0.083866	0.292454	9214.002930
7440.438726	0.858563	0.300615	371.757874
7440.439587	1.314657	0.300615	1503.677490
7440.440566	1.330811	0.300615	2806.541016
7440.441499	1.303147	0.300615	4022.376953
7440.442390	1.274480	0.300615	5157.938477
7440.443308	1.246223	0.300615	6301.971191
7440.444275	1.216457	0.300615	7478.285645
7440.445230	0.987583	0.300615	8421.427734
7440.446127	0.149941	0.300615	8555.924805
7440.447042	0.083936	0.300615	8632.725586
7440.448007	0.083983	0.300615	8713.769531
7440.448898	0.083979	0.300615	8788.595703
7440.449835	0.083947	0.300615	8867.253906
7440.450775	0.083947	0.300615	8946.164062
7440.451706	0.083921	0.300615	9024.293945
7440.452590	0.083921	0.300615	9098.480469
7440.453532	0.083969	0.300615	9177.579102
7440.454479	0.083987	0.300615	9257.114258
7441.438146	0.855465	0.301912	366.139069
7441.439117	1.316865	0.301912	1644.815186
7441.440140	1.327397	0.301912	3002.742676
7441.441027	1.299869	0.301912	4155.726562
7441.441888	1.271686	0.301912	5250.647949
7441.442953	1.239507	0.301912	6570.722656
7441.443888	1.211316	0.301912	7703.303223
7441.444761	0.893760	0.301912	8483.555664
7441.445721	0.124764	0.301912	8603.329102
7441.446761	0.083877	0.301912	8690.561523
7441.447654	0.083936	0.301912	8765.515625
7441.448516	0.083888	0.301912	8837.827148
7441.449578	0.083965	0.301912	8926.998047
7441.450524	0.083888	0.301912	9006.356445
7441.451401	0.083914	0.301912	9079.948242
7441.452337	0.083939	0.301912	9158.515625
7441.453394	0.083910	0.301912	9247.208008
7441.454286	0.083873	0.301912	9322.023437
7442.506729	0.893588	0.299205	419.092621
7442.507605	1.319143	0.299205	1574.661987
7442.508596	1.329613	0.299205	2892.308594
7442.509647	1.297767	0.299205	4256.262207
7442.510559	1.268159	0.299205	5412.823242
7442.511421	1.240715	0.299205	6482.319824
7442.512510	1.209207	0.299205	7799.145508
7442.513518	0.659418	0.299205	8463.838867
7442.514388	0.095262	0.299205	8546.716797
7442.515372	0.083844	0.299205	8629.219727
7442.516429	0.083925	0.299205	8717.927734
7442.517330	0.083884	0.299205	8793.507812
7442.518201	0.083910	0.299205	8866.593750
7442.519290	0.083936	0.299205	8958.000000
7442.520268	0.083789	0.299205	9039.945312
7442.521129	0.083921	0.299205	9112.201172
7442.522202	0.083903	0.299205	9202.228516
7442.523244	0.083936	0.299205	9289.689453
7443.498941	0.852363	0.307737	362.254395
7443.499912	1.319649	0.307737	1643.633057
7443.500820	1.329983	0.307737	2851.257568
7443.501738	1.302609	0.307737	4047.052246
7443.502611	1.274246	0.307737	5159.468750
7443.503624	1.243850	0.307737	6419.488770
7443.504544	1.214952	0.307737	7537.245117
7443.505465	0.987330	0.307737	8446.576172
7443.506330	0.154669	0.307737	8580.365234
7443.507311	0.083719	0.307737	8662.494141
7443.508259	0.083811	0.307737	8741.947266
7443.509127	0.083870	0.307737	8814.746094
7443.510034	0.083906	0.307737	8890.848633
7443.510992	0.083855	0.307737	8971.181641
7443.511917	0.083844	0.307737	9048.737305
7443.512796	0.083899	0.307737	9122.484375
7443.513737	0.083859	0.307737	9201.395508
7443.514683	0.083877	0.307737	9280.743164
7444.573172	0.904460	0.284711	427.809784
7444.574048	1.320183	0.284711	1584.290161
7444.575023	1.329767	0.284711	2880.812988
7444.576087	1.297452	0.284711	4261.302246
7444.577020	1.267460	0.284711	5443.842285
7444.577885	1.240118	0.284711	6516.544922
7444.578960	1.208826	0.284711	7816.032715
7444.579973	0.628784	0.284711	8452.991211
7444.580851	0.093915	0.284711	8535.448242
7444.581852	0.083906	0.284711	8619.438477
7444.582894	0.083947	0.284711	8706.911133
7444.583777	0.083866	0.284711	8780.964844
7444.584646	0.083917	0.284711	8853.888672
7444.585732	0.083947	0.284711	8945.054687
7444.586702	0.083906	0.284711	9026.443359
7444.587580	0.084020	0.284711	9100.212891
7444.588580	0.083939	0.284711	9184.152344
7444.589625	0.083877	0.284711	9271.803711
7445.561333	0.889805	0.291241	421.767395
7445.562230	1.321721	0.291241	1607.351318
7445.563099	1.331426	0.291241	2764.360352
7445.564079	1.303015	0.291241	4041.315186
7445.565039	1.272261	0.291241	5262.685547
7445.565937	1.243766	0.291241	6379.587402
7445.566824	1.216930	0.291241	7459.004395
7445.567774	0.982181	0.291241	8392.077148
7445.568741	0.143741	0.291241	8531.075195
7445.569618	0.083829	0.291241	8604.593750
7445.570525	0.083884	0.291241	8680.676758
7445.571474	0.083895	0.291241	8760.292969
7445.572397	0.083936	0.291241	8837.765625
7445.573278	0.083950	0.291241	8911.725586
7445.574222	0.083943	0.291241	8990.967773
7445.575144	0.083892	0.291241	9068.315430
7445.576070	0.083990	0.291241	9146.090820
7445.576933	0.083925	0.291241	9218.517578
7446.637012	0.862877	0.297469	378.803101
7446.637880	1.315884	0.297469	1520.990356
7446.638749	1.333015	0.297469	2679.380615
7446.639727	1.304502	0.297469	3955.183594
7446.640648	1.274590	0.297469	5129.081055
7446.641583	1.246029	0.297469	6294.118164
7446.642450	1.219076	0.297469	7351.057129
7446.643451	1.036311	0.297469	8388.404297
7446.644391	0.157229	0.297469	8536.199219
7446.645257	0.083811	0.297469	8608.779297
7446.646276	0.083848	0.297469	8694.219727
7446.647162	0.083921	0.297469	8768.573242
7446.648082	0.083943	0.297469	8845.800781
7446.648942	0.083998	0.297469	8918.039062
7446.649905	0.083972	0.297469	8998.904297
7446.650833	0.083888	0.297469	9076.751953
7446.651710	0.083943	0.297469	9150.370117
7446.652762	0.083979	0.297469	9238.716797
7447.621047	0.866444	0.287076	364.772980
7447.622141	1.327551	0.287076	1817.114014
7447.623106	1.325995	0.287076	3096.699219
7447.623968	1.298643	0.287076	4216.128906
7447.625059	1.264149	0.287076	5595.315430
7447.626111	1.232311	0.287076	6891.706543
7447.626982	1.205555	0.287076	7941.745117
7447.627900	0.638873	0.287076	8528.230469
7447.628962	0.088297	0.287076	8622.001953
7447.629910	0.083778	0.287076	8701.423828
7447.630776	0.083910	0.287076	8774.089844
7447.631801	0.083936	0.287076	8860.124023
7447.632833	0.083837	0.287076	8946.643555
7447.633721	0.083928	0.287076	9021.171875
7447.634674	0.083910	0.287076	9101.137695
7447.635744	0.083862	0.287076	9190.870117
7447.636669	0.083903	0.287076	9268.480469
7447.637532	0.083859	0.287076	9340.850586
7448.697811	0.873453	0.307983	383.446014
7448.698689	1.316360	0.307983	1539.209961
7448.699550	1.332415	0.307983	2686.418945
7448.700546	1.304355	0.307983	3985.556885
7448.701503	1.273751	0.307983	5204.537109
7448.702380	1.245714	0.307983	6297.028320
7448.703299	1.218307	0.307983	7416.652344
7448.704263	1.023919	0.307983	8403.709961
7448.705196	0.153259	0.307983	8546.701172
7448.706072	0.083785	0.307983	8620.097656
7448.707015	0.083899	0.307983	8699.213867
7448.707973	0.083862	0.307983	8779.553711
7448.708862	0.083983	0.307983	8854.214844
7448.709938	0.083807	0.307983	8944.391602
7448.710895	0.083888	0.307983	9024.671875
7448.711826	0.083903	0.307983	9102.785156
7448.712687	0.083807	0.307983	9174.943359
7448.713653	0.083899	0.307983	9255.989258
7449.689570	0.880320	0.295539	396.143890
7449.690454	1.318187	0.295539	1561.421387
7449.691315	1.332675	0.295539	2708.854248
7449.692410	1.301005	0.295539	4133.454102
7449.693295	1.271415	0.295539	5258.656250
7449.694208	1.243242	0.295539	6393.736328
7449.695090	1.215623	0.295539	7465.915527
7449.696146	0.898920	0.295539	8415.174805
7449.697044	0.122849	0.295539	8525.493164
7449.697919	0.083793	0.295539	8598.811523
7449.698906	0.083917	0.295539	8681.637695
7449.699845	0.083910	0.295539	8760.428711
7449.700767	0.083932	0.295539	8837.813477
7449.701628	0.083917	0.295539	8910.066406
7449.702678	0.083844	0.295539	8998.102539
7449.703551	0.083881	0.295539	9071.330078
7449.704415	0.083947	0.295539	9143.860352
7449.705370	0.084012	0.295539	9224.091797
7450.758177	0.934197	0.305066	477.374573
7450.759195	1.330404	0.305066	1831.725830
7450.760080	1.327152	0.305066	3006.255371
7450.761043	1.297676	0.305066	4255.916992
7450.762100	1.263779	0.305066	5591.731445
7450.763031	1.235138	0.305066	6741.645020
7450.763893	1.208558	0.305066	7783.422363
7450.764970	0.606207	0.305066	8436.307617
7450.765974	0.088279	0.305066	8524.939453
7450.766847	0.083870	0.305066	8598.157227
7450.767816	0.083950	0.305066	8679.504883
7450.768875	0.083969	0.305066	8768.427734
7450.769769	0.083910	0.305066	8843.443359
7450.770634	0.083870	0.305066	8915.990234
7450.771717	0.083954	0.305066	9006.912109
7450.772718	0.083932	0.305066	9090.927734
7450.773616	0.083914	0.305066	9166.282227
7450.774606	0.083921	0.305066	9249.364258
7451.756009	0.889662	0.290460	419.030731
7451.756950	1.323530	0.290460	1664.472656
7451.757876	1.329335	0.290460	2895.436523
7451.758743	1.302653	0.290460	4024.836426
7451.759734	1.271854	0.290460	5285.244141
7451.760678	1.242433	0.290460	6458.100586
7451.761570	1.214707	0.290460	7541.619141
7451.762455	0.960143	0.290460	8391.345703
7451.763430	0.133674	0.290460	8521.677734
7451.764385	0.083672	0.290460	8601.583984
7451.765273	0.083826	0.290460	8676.021484
7451.766177	0.083811	0.290460	8751.787109
7451.767149	0.083763	0.290460	8833.205078
7451.768069	0.083818	0.290460	8910.318359
7451.768935	0.083862	0.290460	8982.943359
7451.769883	0.083844	0.290460	9062.427734
7451.770805	0.083873	0.290460	9139.758789
7451.771724	0.083800	0.290460	9216.771484
7452.819904	0.852067	0.310931	365.536591
7452.820772	1.314404	0.310931	1506.439575
7452.821739	1.330836	0.310931	2793.358154
7452.822694	1.302510	0.310931	4037.254883
7452.823610	1.273257	0.310931	5203.558105
7452.824498	1.245655	0.310931	6309.700195
7452.825532	1.215070	0.310931	7566.082031
7452.826427	0.986202	0.310931	8448.733398
7452.827306	0.150117	0.310931	8580.686523
7452.828190	0.083844	0.310931	8654.804687
7452.829228	0.083888	0.310931	8741.879883
7452.830112	0.083855	0.310931	8816.007812
7452.830977	0.083906	0.310931	8888.586914
7452.831984	0.083903	0.310931	8973.077148
7452.832886	0.083888	0.310931	9048.744141
7452.833797	0.083921	0.310931	9125.196289
7452.834672	0.083998	0.310931	9198.694336
7452.835711	0.083884	0.310931	9285.849609
7453.819335	0.859552	0.292691	375.624207
7453.820199	1.315107	0.292691	1511.876953
7453.821278	1.328240	0.292691	2945.047852
7453.822282	1.297405	0.292691	4247.642090
7453.823164	1.269148	0.292691	5367.030762
7453.824149	1.239393	0.292691	6587.833008
7453.825209	1.207430	0.292691	7867.708984
7453.826132	0.683492	0.292691	8498.572266
7453.826990	0.098287	0.292691	8582.902344
7453.828086	0.083910	0.292691	8674.867187
7453.829088	0.083848	0.292691	8758.882812
7453.829966	0.083866	0.292691	8832.517578
7453.830965	0.083899	0.292691	8916.333008
7453.832034	0.083921	0.292691	9006.044922
7453.832912	0.083888	0.292691	9079.698242
7453.833778	0.083910	0.292691	9152.364258
7453.834885	0.083947	0.292691	9245.292969
7453.835853	0.083932	0.292691	9326.539062
7454.881720	0.845834	0.311435	356.096008
7454.882647	1.317711	0.311435	1577.614258
7454.883612	1.329796	0.311435	2860.867432
7454.884541	1.301829	0.311435	4070.266113
7454.885408	1.273693	0.311435	5174.557617
7454.886382	1.244323	0.311435	6386.527832
7454.887349	1.215414	0.311435	7561.833008
7454.888244	0.992446	0.311435	8450.072266
7454.889143	0.155211	0.311435	8589.607422
7454.890081	0.083774	0.311435	8668.187500
7454.891000	0.083976	0.311435	8745.361328
7454.891871	0.083892	0.311435	8818.430664
7454.892848	0.083895	0.311435	8900.396484
7454.893801	0.083884	0.311435	8980.337891
7454.894694	0.083947	0.311435	9055.301758
7454.895603	0.083925	0.311435	9131.588867
7454.896532	0.083899	0.311435	9209.531250
7454.897479	0.083969	0.311435	9289.049805
7455.882217	0.896140	0.299825	412.224457
7455.883096	1.319443	0.299825	1572.015137
7455.883961	1.331089	0.299825	2723.406982
7455.885062	1.299683	0.299825	4154.357422
7455.885984	1.269957	0.299825	5325.257812
7455.886865	1.242704	0.299825	6420.080078
7455.887865	1.213140	0.299825	7633.219727
7455.888878	0.800054	0.299825	8443.673828
7455.889770	0.106560	0.299825	8538.725586
7455.890631	0.083778	0.299825	8610.858398
7455.891738	0.083914	0.299825	8703.750977
7455.892655	0.083932	0.299825	8780.716797
7455.893533	0.083969	0.299825	8854.441406
7455.894539	0.083947	0.299825	8938.891602
7455.895526	0.083943	0.299825	9021.743164
7455.896410	0.083906	0.299825	9095.916016
7455.897267	0.083877	0.299825	9167.798828
7455.898353	0.083969	0.299825	9258.988281
7456.945163	0.917139	0.310964	452.149353
7456.946048	1.322219	0.310964	1622.313477
7456.946980	1.329759	0.310964	2861.649414
7456.948057	1.297167	0.310964	4258.698242
7456.949000	1.267064	0.310964	5453.540039
7456.949866	1.239990	0.310964	6527.371582
7456.950924	1.208635	0.310964	7806.107422
7456.951953	0.617996	0.310964	8442.024414
7456.952834	0.092926	0.310964	8523.892578
7456.953796	0.083884	0.310964	8604.588867
7456.954856	0.083884	0.310964	8693.505859
7456.955770	0.083917	0.310964	8770.206055
7456.956637	0.083855	0.310964	8842.908203
7456.957683	0.083921	0.310964	8930.689453
7456.958700	0.083921	0.310964	9016.037109
7456.959596	0.083976	0.310964	9091.279297
7456.960573	0.083965	0.310964	9173.312500
7456.961635	0.083899	0.310964	9262.413086
7457.945566	0.876248	0.301461	389.930176
7457.946455	1.317726	0.301461	1561.388428
7457.947322	1.332349	0.301461	2716.534668
7457.948282	1.304901	0.301461	3969.239746
7457.949212	1.274202	0.301461	5154.247070
7457.950125	1.245729	0.301461	6291.597656
7457.951013	1.219061	0.301461	7374.124023
7457.951952	1.065322	0.301461	8374.461914
7457.952906	0.172170	0.301461	8538.712891
7457.953828	0.083822	0.301461	8615.997070
7457.954695	0.083826	0.301461	8688.673828
7457.955664	0.083888	0.301461	8769.960937
7457.956605	0.084001	0.301461	8849.005859
7457.957495	0.083840	0.301461	8923.624023
7457.958374	0.083877	0.301461	8997.351562
7457.959342	0.083903	0.301461	9078.569336
7457.960290	0.083917	0.301461	9158.123047
7457.961184	0.083840	0.301461	9233.076172
7459.008022	0.921031	0.310694	463.278839
7459.008922	1.324362	0.310694	1655.204224
7459.009801	1.330518	0.310694	2824.729004
7459.010797	1.300719	0.310694	4120.245117
7459.011809	1.267994	0.310694	5403.455566
7459.012703	1.240496	0.310694	6512.458496
7459.013569	1.213605	0.310694	7563.440430
7459.014667	0.769340	0.310694	8408.175781
7459.015574	0.101814	0.310694	8500.521484
7459.016443	0.083723	0.310694	8573.277344
7459.017415	0.083895	0.310694	8654.823242
7459.018417	0.083899	0.310694	8738.889648
7459.019291	0.083958	0.310694	8812.268555
7459.020148	0.083925	0.310694	8884.192383
7459.021221	0.083884	0.310694	8974.200195
7459.022148	0.083958	0.310694	9052.029297
7459.023014	0.083910	0.310694	9124.695312
7459.023966	0.083914	0.310694	9204.581055
7460.009976	0.924851	0.293485	443.928467
7460.010911	1.325013	0.293485	1682.816040
7460.011799	1.330104	0.293485	2863.948242
7460.012720	1.302213	0.293485	4063.286621
7460.013691	1.271345	0.293485	5297.762695
7460.014626	1.242451	0.293485	6459.454590
7460.015496	1.215809	0.293485	7517.208984
7460.016464	0.969760	0.293485	8455.936523
7460.017387	0.135136	0.293485	8580.666992
7460.018310	0.083800	0.293485	8658.014648
7460.019171	0.083800	0.293485	8730.166016
7460.020102	0.083947	0.293485	8808.320312
7460.021057	0.083888	0.293485	8888.433594
7460.021953	0.083888	0.293485	8963.597656
7460.022870	0.083855	0.293485	9040.492187
7460.023825	0.083873	0.293485	9120.590820
7460.024758	0.083870	0.293485	9198.840820
7460.025635	0.083925	0.293485	9272.442383
7461.069784	0.876984	0.317550	386.749786
7461.070660	1.316763	0.317550	1540.233887
7461.071590	1.331217	0.317550	2778.265625
7461.072552	1.303213	0.317550	4031.956543
7461.073477	1.273334	0.317550	5209.790039
7461.074345	1.245967	0.317550	6291.289062
7461.075278	1.217223	0.317550	7426.958008
7461.076233	0.999727	0.317550	8381.697266
7461.077160	0.153538	0.317550	8524.026367
7461.078025	0.083763	0.317550	8596.481445
7461.078999	0.083789	0.317550	8678.091797
7461.079945	0.083837	0.317550	8757.401367
7461.080836	0.083895	0.317550	8832.152344
7461.081753	0.083965	0.317550	8909.148437
7461.082719	0.083851	0.317550	8990.148437
7461.083646	0.083811	0.317550	9067.840820
7461.084514	0.083895	0.317550	9140.662109
7461.085424	0.083789	0.317550	9216.910156
7462.071298	0.906749	0.297155	448.840881
7462.072184	1.322183	0.297155	1620.294678
7462.073048	1.331587	0.297155	2770.785645
7462.074065	1.300931	0.297155	4093.833008
7462.075046	1.269756	0.297155	5339.463867
7462.075920	1.242605	0.297155	6425.500488
7462.076802	1.215366	0.297155	7497.453613
7462.077903	0.839850	0.297155	8422.127930
7462.078780	0.114606	0.297155	8522.636719
7462.079640	0.083829	0.297155	8594.729492
7462.080692	0.083972	0.297155	8683.068359
7462.081659	0.083862	0.297155	8764.163086
7462.082579	0.083895	0.297155	8841.346680
7462.083435	0.083859	0.297155	8913.129883
7462.084530	0.083910	0.297155	9005.011719
7462.085412	0.083826	0.297155	9078.946289
7462.086275	0.083848	0.297155	9151.306641
7462.087347	0.083969	0.297155	9241.321289
7463.134697	0.898788	0.310561	419.733887
7463.135572	1.318912	0.310561	1573.782227
7463.136550	1.329346	0.310561	2873.882324
7463.137608	1.297302	0.310561	4246.428223
7463.138532	1.267811	0.310561	5417.885742
7463.139403	1.239990	0.310561	6497.916992
7463.140506	1.207873	0.310561	7830.201172
7463.141506	0.627202	0.310561	8457.403320
7463.142399	0.092838	0.310561	8540.307617
7463.143371	0.083785	0.310561	8621.747070
7463.144414	0.083844	0.310561	8709.196289
7463.145313	0.083888	0.310561	8784.611328
7463.146175	0.083804	0.310561	8856.850586
7463.147284	0.083939	0.310561	8949.939453
7463.148249	0.083822	0.310561	9030.828125
7463.149110	0.083822	0.310561	9102.999023
7463.150177	0.083895	0.310561	9192.515625
7463.151207	0.083895	0.310561	9278.927734
7464.131007	0.870879	0.299519	372.736176
7464.131986	1.322977	0.299519	1667.931030
7464.132923	1.329294	0.299519	2913.479980
7464.133800	1.302415	0.299519	4055.697510
7464.134738	1.272737	0.299519	5249.524414
7464.135692	1.243264	0.299519	6435.598633
7464.136616	1.215231	0.299519	7558.471680
7464.137484	1.018173	0.299519	8442.245117
7464.138443	0.152054	0.299519	8588.065430
7464.139366	0.083749	0.299519	8665.365234
7464.140292	0.083866	0.299519	8743.025391
7464.141158	0.083877	0.299519	8815.663086
7464.142125	0.083877	0.299519	8896.772461
7464.143073	0.083829	0.299519	8976.243164
7464.143964	0.083921	0.299519	9051.016602
7464.144883	0.083906	0.299519	9128.125977
7464.145835	0.083826	0.299519	9207.927734
7464.146722	0.083910	0.299519	9282.355469
7465.205693	0.850419	0.303310	362.278351
7465.206560	1.313954	0.303310	1501.476318
7465.207622	1.329056	0.303310	2912.934082
7465.208514	1.301690	0.303310	4074.041016
7465.209388	1.273575	0.303310	5187.145996
7465.210297	1.244894	0.303310	6318.754395
7465.211323	1.214396	0.303310	7564.724609
7465.212214	0.988780	0.303310	8445.728516
7465.213076	0.155522	0.303310	8579.789062
7465.214163	0.083818	0.303310	8670.899414
7465.215054	0.083822	0.303310	8745.584961
7465.215969	0.083822	0.303310	8822.282227
7465.216839	0.083877	0.303310	8895.254883
7465.217884	0.083785	0.303310	8982.810547
7465.218773	0.083855	0.303310	9057.357422
7465.219650	0.083840	0.303310	9130.885742
7465.220635	0.083833	0.303310	9213.460937
7465.221584	0.083815	0.303310	9293.000977
7466.193892	0.882239	0.298536	405.829834
7466.194783	1.320128	0.298536	1582.063965
7466.195711	1.330591	0.298536	2816.852295
7466.196676	1.302220	0.298536	4073.495117
7466.197567	1.273136	0.298536	5207.859375
7466.198460	1.245363	0.298536	6319.968262
7466.199417	1.216245	0.298536	7483.915039
7466.200377	0.985375	0.298536	8429.875000
7466.201265	0.152120	0.298536	8564.958008
7466.202197	0.083789	0.298536	8643.049805
7466.203147	0.083851	0.298536	8722.708984
7466.204050	0.083833	0.298536	8798.410156
7466.204925	0.083851	0.298536	8871.780273
7466.205851	0.083837	0.298536	8949.413086
7466.206794	0.083815	0.298536	9028.450195
7466.207718	0.083855	0.298536	9105.932617
7466.208577	0.083796	0.298536	9177.914062
7466.209541	0.083793	0.298536	9258.690430
7467.271638	0.864027	0.298879	380.171906
7467.272511	1.315635	0.298879	1528.721069
7467.273373	1.332924	0.298879	2677.701172
7467.274338	1.304388	0.298879	3936.436035
7467.275266	1.274736	0.298879	5119.391602
7467.276186	1.246355	0.298879	6266.038086
7467.277060	1.219435	0.298879	7331.824219
7467.278059	1.056046	0.298879	8386.814453
7467.278989	0.167534	0.298879	8542.621094
7467.279866	0.083921	0.298879	8616.219727
7467.280736	0.083947	0.298879	8689.252930
7467.281698	0.083910	0.298879	8769.974609
7467.282644	0.083877	0.298879	8849.322266
7467.283522	0.083917	0.298879	8923.001953
7467.284436	0.083914	0.298879	8999.699219
7467.285400	0.083950	0.298879	9080.626953
7467.286325	0.083917	0.298879	9158.250000
7467.287201	0.084001	0.298879	9231.834961
7468.254202	0.918523	0.293803	439.053986
7468.255081	1.320835	0.293803	1600.067871
7468.256061	1.328877	0.293803	2902.367187
7468.257131	1.296420	0.293803	4289.536133
7468.258044	1.266995	0.293803	5446.302246
7468.258913	1.239126	0.293803	6523.102539
7468.260026	1.206925	0.293803	7866.410156
7468.261015	0.601296	0.293803	8461.091797
7468.261912	0.091498	0.293803	8543.165039
7468.262902	0.083921	0.293803	8626.247070
7468.263965	0.083873	0.293803	8715.404297
7468.264863	0.083866	0.293803	8790.715820
7468.265752	0.084020	0.293803	8865.409180
7468.266831	0.084056	0.293803	8956.106445
7468.267793	0.083859	0.293803	9036.778320
7468.268653	0.083914	0.293803	9108.944336
7468.269698	0.083958	0.293803	9196.679687
7468.270721	0.083950	0.293803	9282.560547
7469.339632	0.873058	0.301010	410.337189
7469.340523	1.320776	0.301010	1587.148926
7469.341422	1.330957	0.301010	2783.679199
7469.342364	1.302572	0.301010	4010.702148
7469.343318	1.272583	0.301010	5224.746094
7469.344203	1.244952	0.301010	6326.528809
7469.345136	1.217237	0.301010	7462.211426
7469.346099	0.995475	0.301010	8420.853516
7469.346974	0.155109	0.301010	8556.573242
7469.347876	0.083815	0.301010	8632.173828
7469.348813	0.083807	0.301010	8710.701172
7469.349761	0.083862	0.301010	8790.203125
7469.350649	0.083881	0.301010	8864.689453
7469.351559	0.083870	0.301010	8941.010742
7469.352514	0.083862	0.301010	9021.099609
7469.353436	0.083859	0.301010	9098.416992
7469.354297	0.083895	0.301010	9170.650391
7469.355258	0.083892	0.301010	9251.270508
7470.315449	0.845376	0.288280	354.212524
7470.316315	1.313947	0.288280	1492.090332
7470.317379	1.328906	0.288280	2906.046631
7470.318271	1.301437	0.288280	4066.928223
7470.319155	1.273473	0.288280	5192.678223
7470.320154	1.243052	0.288280	6434.486816
7470.321099	1.213828	0.288280	7581.554199
7470.322022	0.948263	0.288280	8456.800781
7470.322890	0.141061	0.288280	8579.241211
7470.323935	0.083719	0.288280	8666.728516
7470.324812	0.083815	0.288280	8740.234375
7470.325680	0.083752	0.288280	8812.931641
7470.326637	0.083815	0.288280	8893.142578
7470.327596	0.083870	0.288280	8973.573242
7470.328512	0.083884	0.288280	9050.411133
7470.329387	0.083859	0.288280	9123.787109
7470.330403	0.083888	0.288280	9209.017578
7470.331302	0.083899	0.288280	9284.442383
7471.407561	0.861855	0.297412	378.354553
7471.408422	1.314606	0.297412	1510.229980
7471.409497	1.328390	0.297412	2938.249023
7471.410521	1.296819	0.297412	4266.191406
7471.411403	1.268752	0.297412	5385.230957
7471.412401	1.238628	0.297412	6621.381836
7471.413454	1.206636	0.297412	7891.969238
7471.414360	0.671459	0.297412	8500.310547
7471.415230	0.096698	0.297412	8584.437500
7471.416296	0.083866	0.297412	8673.838867
7471.417286	0.083815	0.297412	8756.815430
7471.418174	0.083928	0.297412	8831.343750
7471.419153	0.083972	0.297412	8913.552734
7471.420209	0.083899	0.297412	9002.150391
7471.421104	0.083848	0.297412	9077.194336
7471.421966	0.083862	0.297412	9149.483398
7471.423057	0.083892	0.297412	9241.008789
7471.424019	0.083877	0.297412	9321.698242
7472.375288	0.896396	0.292236	425.788330
7472.376181	1.320436	0.292236	1604.937500
7472.377045	1.331444	0.292236	2755.305176
7472.378022	1.303517	0.292236	4028.841309
7472.378970	1.272663	0.292236	5235.326172
7472.379869	1.244114	0.292236	6353.784180
7472.380738	1.217252	0.292236	7411.576172
7472.381724	0.983086	0.292236	8380.898437
7472.382688	0.140211	0.292236	8516.062500
7472.383572	0.083727	0.292236	8590.077148
7472.384474	0.083800	0.292236	8665.665039
7472.385429	0.083822	0.292236	8745.714844
7472.386351	0.083903	0.292236	8823.073242
7472.387219	0.083888	0.292236	8895.887695
7472.388196	0.083866	0.292236	8977.825195
7472.389106	0.083895	0.292236	9054.169922
7472.390015	0.083837	0.292236	9130.377930
7472.390892	0.083800	0.292236	9203.870117
7473.474499	0.861277	0.293332	372.071594
7473.475374	1.315569	0.293332	1523.194336
7473.476342	1.330580	0.293332	2811.195801
7473.477290	1.302045	0.293332	4045.534180
7473.478212	1.272902	0.293332	5219.149414
7473.479100	1.245216	0.293332	6324.901367
7473.480140	1.214418	0.293332	7587.895996
7473.481033	0.971221	0.293332	8455.196289
7473.481911	0.146913	0.293332	8584.185547
7473.482826	0.083844	0.293332	8660.902344
7473.483835	0.083877	0.293332	8745.534180
7473.484722	0.083899	0.293332	8819.952148
7473.485586	0.083936	0.293332	8892.472656
7473.486573	0.083932	0.293332	8975.313477
7473.487494	0.083840	0.293332	9052.530273
7473.488415	0.083862	0.293332	9129.767578
7473.489285	0.083895	0.293332	9202.756836
7473.490323	0.083925	0.293332	9289.870117
7474.434497	0.854546	0.290157	365.745636
7474.435510	1.319143	0.290157	1702.037476
7474.436560	1.325435	0.290157	3093.743652
7474.437466	1.296910	0.290157	4268.744629
7474.438329	1.268068	0.290157	5363.086914
7474.439427	1.235585	0.290157	6719.758789
7474.440400	1.206427	0.290157	7893.612305
7474.441278	0.713745	0.290157	8520.280273
7474.442308	0.095127	0.290157	8618.260742
7474.443355	0.083789	0.290157	8705.988281
7474.444223	0.083829	0.290157	8778.751953
7474.445112	0.083914	0.290157	8853.351562
7474.446211	0.083899	0.290157	8945.556641
7474.447160	0.083895	0.290157	9025.172852
7474.448029	0.083910	0.290157	9098.090820
7474.449058	0.084082	0.290157	9184.611328
7474.450082	0.083859	0.290157	9270.482422
7474.450974	0.083983	0.290157	9345.395508
7475.539907	0.865038	0.289444	371.966248
7475.540777	1.315613	0.289444	1516.549316
7475.541762	1.330085	0.289444	2826.683594
7475.542695	1.302312	0.289444	4041.740723
7475.543579	1.273986	0.289444	5167.943848
7475.544489	1.245795	0.289444	6301.617187
7475.545443	1.217157	0.289444	7462.785156
7475.546376	1.027727	0.289444	8421.654297
7475.547245	0.171727	0.289444	8570.885742
7475.548222	0.083822	0.289444	8652.780273
7475.549139	0.083943	0.289444	8729.755859
7475.550037	0.083873	0.289444	8805.074219
7475.550915	0.083844	0.289444	8878.689453
7475.551884	0.083848	0.289444	8959.937500
7475.552800	0.083851	0.289444	9036.745117
7475.553674	0.083958	0.289444	9110.124023
7475.554647	0.083979	0.289444	9191.835937
7475.555580	0.083848	0.289444	9270.065430
7476.497897	0.868945	0.287559	387.549591
7476.498772	1.317034	0.287559	1539.953979
7476.499662	1.331704	0.287559	2725.170654
7476.500631	1.303521	0.287559	3988.282227
7476.501566	1.273857	0.287559	5179.338867
7476.502433	1.245549	0.287559	6259.229980
7476.503453	1.215406	0.287559	7498.944336
7476.504355	0.991080	0.287559	8392.898437
7476.505280	0.150172	0.287559	8531.807617
7476.506145	0.083741	0.287559	8604.244141
7476.507138	0.083844	0.287559	8687.500977
7476.508060	0.083774	0.287559	8764.741211
7476.508941	0.083873	0.287559	8838.633789
7476.509850	0.083906	0.287559	8914.904297
7476.510799	0.083851	0.287559	8994.479492
7476.511701	0.083870	0.287559	9070.129883
7476.512557	0.083866	0.287559	9141.918945
7476.513579	0.083818	0.287559	9227.581055
7477.603775	0.858501	0.290069	369.155426
7477.604650	1.314745	0.290069	1519.557129
7477.605657	1.329741	0.290069	2858.606445
7477.606669	1.299254	0.290069	4173.451660
7477.607551	1.270836	0.290069	5294.329102
7477.608413	1.243246	0.290069	6366.006836
7477.609496	1.211909	0.290069	7678.504395
7477.610411	0.884539	0.290069	8487.857422
7477.611278	0.124816	0.290069	8596.072266
7477.612260	0.083782	0.290069	8678.345703
7477.613270	0.083837	0.290069	8763.020508
7477.614163	0.083840	0.290069	8837.889648
7477.615028	0.083903	0.290069	8910.465820
7477.616092	0.083884	0.290069	8999.718750
7477.617019	0.083877	0.290069	9077.472656
7477.617895	0.083829	0.290069	9150.907227
7477.618849	0.083928	0.290069	9230.974609
7477.619863	0.083782	0.290069	9315.929687
7478.562746	0.848767	0.290415	360.726013
7478.563611	1.313654	0.290415	1497.036377
7478.564592	1.331023	0.290415	2802.770020
7478.565562	1.302407	0.290415	4066.104980
7478.566454	1.273172	0.290415	5201.774902
7478.567333	1.245579	0.290415	6296.638672
7478.568299	1.216388	0.290415	7471.669434
7478.569238	1.018722	0.290415	8428.249023
7478.570103	0.167347	0.290415	8573.004883
7478.571054	0.083771	0.290415	8652.670898
7478.572013	0.083859	0.290415	8733.091797
7478.572903	0.083873	0.290415	8807.739258
7478.573817	0.083877	0.290415	8884.402344
7478.574759	0.083877	0.290415	8963.414062
7478.575678	0.083811	0.290415	9040.436523
7478.576565	0.083855	0.290415	9114.815430
7478.577493	0.083848	0.290415	9192.625977
7478.578446	0.083811	0.290415	9272.498047
7479.664086	0.878126	0.293364	385.497437
7479.664965	1.316561	0.293364	1542.754761
7479.665827	1.331602	0.293364	2690.595215
7479.666828	1.303524	0.293364	3995.422852
7479.667750	1.274040	0.293364	5170.087891
7479.668623	1.246622	0.293364	6258.389160
7479.669568	1.218516	0.293364	7409.886719
7479.670516	1.036230	0.293364	8392.233398
7479.671448	0.161642	0.293364	8542.883789
7479.672328	0.083782	0.293364	8616.611328
7479.673269	0.083840	0.293364	8695.504883
7479.674218	0.083811	0.293364	8775.041992
7479.675106	0.083866	0.293364	8849.514648
7479.676241	0.083789	0.293364	8944.615234
7479.677138	0.083796	0.293364	9019.780273
7479.678056	0.083877	0.293364	9096.779297
7479.678922	0.083855	0.293364	9169.397461
7479.679895	0.083881	0.293364	9251.013672
7480.629270	0.921141	0.284711	466.097504
7480.630171	1.324651	0.284711	1659.608032
7480.631035	1.329401	0.284711	2808.210205
7480.632145	1.296760	0.284711	4247.614258
7480.633134	1.265629	0.284711	5499.321289
7480.634008	1.238661	0.284711	6581.911133
7480.635082	1.206354	0.284711	7877.535156
7480.636138	0.519756	0.284711	8426.397461
7480.637029	0.088564	0.284711	8505.308594
7480.637951	0.083811	0.284711	8582.582031
7480.639023	0.083877	0.284711	8672.498047
7480.639968	0.083833	0.284711	8751.720703
7480.640831	0.083906	0.284711	8824.131836
7480.641884	0.083972	0.284711	8912.554687
7480.642906	0.083851	0.284711	8998.250977
7480.643786	0.083925	0.284711	9072.104492
7480.644758	0.083917	0.284711	9153.671875
7480.645804	0.083954	0.284711	9241.487305
7481.724907	0.886285	0.290311	412.122711
7481.725801	1.320582	0.290311	1592.723267
7481.726720	1.330507	0.290311	2815.458740
7481.727689	1.302067	0.290311	4077.161133
7481.728610	1.271741	0.290311	5248.434570
7481.729508	1.244099	0.290311	6365.635742
7481.730444	1.215494	0.290311	7503.338379
7481.731408	0.947706	0.290311	8416.927734
7481.732344	0.133121	0.290311	8541.529297
7481.733205	0.083709	0.290311	8613.602539
7481.734168	0.083840	0.290311	8694.340820
7481.735078	0.083910	0.290311	8770.699219
7481.735958	0.083873	0.290311	8844.507812
7481.736890	0.083829	0.290311	8922.636719
7481.737824	0.083840	0.290311	9000.943359
7481.738751	0.083870	0.290311	9078.690430
7481.739614	0.083877	0.290311	9151.076172
7481.740589	0.083829	0.290311	9232.809570
7482.693567	0.853473	0.289118	365.286407
7482.694439	1.314554	0.289118	1511.577881
7482.695396	1.330803	0.289118	2785.156494
7482.696353	1.302535	0.289118	4031.682861
7482.697275	1.273385	0.289118	5205.743652
7482.698155	1.245480	0.289118	6301.765625
7482.699191	1.215015	0.289118	7560.520996
7482.700098	0.980006	0.289118	8449.386719
7482.700976	0.149286	0.289118	8580.459961
7482.701875	0.083749	0.289118	8655.750000
7482.702899	0.083789	0.289118	8741.549805
7482.703791	0.083785	0.289118	8816.286133
7482.704655	0.083807	0.289118	8888.695312
7482.705643	0.083844	0.289118	8971.533203
7482.706558	0.083859	0.289118	9048.263672
7482.707483	0.083932	0.289118	9125.900391
7482.708362	0.083895	0.289118	9199.644531
7482.709395	0.083855	0.289118	9286.266602
7483.785221	0.909207	0.294190	452.784882
7483.786168	1.326295	0.294190	1708.786377
7483.787059	1.329283	0.294190	2893.177734
7483.788090	1.297555	0.294190	4230.957031
7483.789148	1.264138	0.294190	5568.415039
7483.790043	1.236361	0.294190	6674.958008
7483.790993	1.208002	0.294190	7822.559570
7483.792088	0.540743	0.294190	8414.673828
7483.793020	0.087861	0.294190	8496.560547
7483.793884	0.083818	0.294190	8568.979492
7483.794934	0.083943	0.294190	8657.119141
7483.795946	0.083807	0.294190	8741.932617
7483.796834	0.083884	0.294190	8816.421875
7483.797797	0.083917	0.294190	8897.234375
7483.798848	0.083928	0.294190	8985.443359
7483.799758	0.083932	0.294190	9061.821289
7483.800616	0.083848	0.294190	9133.762695
7483.801681	0.083958	0.294190	9223.177734
7484.759528	0.900341	0.281303	425.861084
7484.760462	1.323607	0.281303	1662.110229
7484.761386	1.329393	0.281303	2890.469727
7484.762254	1.302609	0.281303	4021.134277
7484.763234	1.271905	0.281303	5267.601562
7484.764191	1.242605	0.281303	6456.774414
7484.765060	1.215469	0.281303	7513.016602
7484.765943	0.986891	0.281303	8384.441406
7484.766924	0.139047	0.281303	8520.845703
7484.767868	0.083712	0.281303	8599.870117
7484.768765	0.083851	0.281303	8675.084961
7484.769675	0.083837	0.281303	8751.375977
7484.770641	0.083851	0.281303	8832.375977
7484.771564	0.083829	0.281303	8909.750000
7484.772425	0.083881	0.281303	8981.971680
7484.773372	0.083822	0.281303	9061.351562
7484.774302	0.083829	0.281303	9139.312500
7484.775179	0.083903	0.281303	9212.895508
7485.849540	0.864141	0.296248	375.037048
7485.850452	1.318597	0.296248	1577.597900
7485.851332	1.331349	0.296248	2749.185059
7485.852384	1.300708	0.296248	4117.529785
7485.853278	1.271927	0.296248	5254.632812
7485.854161	1.244487	0.296248	6353.515137
7485.855136	1.215546	0.296248	7538.671875
7485.856109	0.933538	0.296248	8447.003906
7485.857035	0.127690	0.296248	8565.245117
7485.857900	0.083840	0.296248	8637.766602
7485.858947	0.083903	0.296248	8725.612305
7485.859819	0.083866	0.296248	8798.743164
7485.860684	0.083899	0.296248	8871.315430
7485.861615	0.083947	0.296248	8949.469727
7485.862608	0.083881	0.296248	9032.762695
7485.863514	0.083884	0.296248	9108.761719
7485.864402	0.083829	0.296248	9183.202148
7485.865399	0.083840	0.296248	9266.791016
7486.827511	0.917560	0.278947	434.005829
7486.828441	1.323955	0.278947	1665.284058
7486.829330	1.330195	0.278947	2847.827637
7486.830251	1.302389	0.278947	4047.327637
7486.831215	1.271726	0.278947	5273.271484
7486.832137	1.243184	0.278947	6419.486816
7486.833013	1.216527	0.278947	7485.164551
7486.833986	0.984338	0.278947	8442.925781
7486.834905	0.139552	0.278947	8571.173828
7486.835830	0.083719	0.278947	8648.614258
7486.836690	0.083903	0.278947	8720.770508
7486.837797	0.083892	0.278947	8813.638672
7486.838831	0.083881	0.278947	8900.371094
7486.839708	0.083903	0.278947	8973.954102
7486.840623	0.083914	0.278947	9050.735352
7486.841714	0.083921	0.278947	9142.292969
7486.842650	0.083914	0.278947	9220.835937
7486.843510	0.083855	0.278947	9292.951172
7487.912433	0.867660	0.292216	414.741425
7487.913374	1.324087	0.292216	1660.707275
7487.914305	1.328888	0.292216	2897.901855
7487.915181	1.302301	0.292216	4038.717529
7487.916117	1.271971	0.292216	5229.282715
7487.917086	1.242444	0.292216	6433.210937
7487.917964	1.215681	0.292216	7500.579102
7487.918878	0.980515	0.292216	8396.769531
7487.919846	0.138647	0.292216	8530.980469
7487.920774	0.083734	0.292216	8608.685547
7487.921650	0.083899	0.292216	8682.180664
7487.922589	0.083903	0.292216	8760.964844
7487.923529	0.083888	0.292216	8839.819336
7487.924449	0.083851	0.292216	8916.962891
7487.925316	0.083910	0.292216	8989.712891
7487.926286	0.083903	0.292216	9071.098633
7487.927229	0.083928	0.292216	9150.243164
7487.928107	0.083877	0.292216	9223.886719
7488.890885	0.882964	0.285299	444.130798
7488.891943	1.329884	0.285299	1851.147949
7488.892824	1.326746	0.285299	3020.010742
7488.893684	1.299532	0.285299	4137.608398
7488.894707	1.266841	0.285299	5433.586426
7488.895685	1.236896	0.285299	6643.270508
7488.896561	1.210646	0.285299	7703.796387
7488.897450	0.821488	0.285299	8434.099609
7488.898559	0.096050	0.285299	8540.619141
7488.899454	0.083763	0.285299	8615.587891
7488.900319	0.083818	0.285299	8688.090820
7488.901362	0.083899	0.285299	8775.597656
7488.902336	0.083848	0.285299	8857.265625
7488.903259	0.083881	0.285299	8934.687500
7488.904121	0.083844	0.285299	9006.960937
7488.905214	0.083881	0.285299	9098.642578
7488.906093	0.083833	0.285299	9172.332031
7488.906952	0.083895	0.285299	9244.398437
7489.973176	0.849247	0.294033	358.382141
7489.974212	1.324402	0.294033	1730.462402
7489.975249	1.325105	0.294033	3104.596191
7489.976140	1.296973	0.294033	4260.198730
7489.977091	1.266852	0.294033	5464.974609
7489.978157	1.233929	0.294033	6780.343262
7489.979100	1.205720	0.294033	7917.337402
7489.979976	0.685994	0.294033	8518.267578
7489.981053	0.089901	0.294033	8615.090820
7489.982045	0.083833	0.294033	8698.252930
7489.982934	0.083910	0.294033	8772.848633
7489.983919	0.083921	0.294033	8855.510742
7489.984952	0.083921	0.294033	8942.201172
7489.985860	0.083844	0.294033	9018.331055
7489.986723	0.083928	0.294033	9090.760742
7489.987818	0.083903	0.294033	9182.633789
7489.988814	0.083914	0.294033	9266.211914
7489.989694	0.083829	0.294033	9339.981445
7490.954172	0.850774	0.284663	363.280457
7490.955155	1.318370	0.284663	1659.238525
7490.956037	1.329913	0.284663	2832.222168
7490.956949	1.302773	0.284663	4020.351562
7490.957827	1.274491	0.284663	5139.354492
7490.958777	1.244934	0.284663	6322.041992
7490.959723	1.216252	0.284663	7472.616699
7490.960650	1.025936	0.284663	8423.659180
7490.961521	0.168717	0.284663	8570.611328
7490.962491	0.083807	0.284663	8651.904297
7490.963444	0.083811	0.284663	8731.776367
7490.964339	0.083895	0.284663	8806.862305
7490.965273	0.083895	0.284663	8885.220703
7490.966207	0.083837	0.284663	8963.524414
7490.967096	0.083855	0.284663	9038.071289
7490.967972	0.083833	0.284663	9111.508789
7490.969000	0.083862	0.284663	9197.718750
7490.969923	0.083862	0.284663	9275.124023
7492.036538	0.846269	0.288876	357.125732
7492.037532	1.318758	0.288876	1667.971680
7492.038542	1.326617	0.288876	3007.855469
7492.039446	1.298833	0.288876	4182.000488
7492.040315	1.269983	0.288876	5285.615723
7492.041414	1.237251	0.288876	6645.354492
7492.042339	1.209467	0.288876	7764.111328
7492.043225	0.829512	0.288876	8499.058594
7492.044206	0.110164	0.288876	8607.128906
7492.045210	0.083771	0.288876	8691.234375
7492.046093	0.083917	0.288876	8765.333008
7492.046955	0.083877	0.288876	8837.634766
7492.048036	0.083987	0.288876	8928.424805
7492.048943	0.083998	0.288876	9004.610352
7492.049813	0.083917	0.288876	9077.618164
7492.050809	0.083972	0.288876	9161.254883
7492.051817	0.083961	0.288876	9245.887695
7492.052695	0.083943	0.288876	9319.589844
7493.013496	0.877361	0.291732	419.378479
7493.014377	1.320560	0.291732	1582.792236
7493.015251	1.331265	0.291732	2746.317383
7493.016181	1.303759	0.291732	3958.812744
7493.017122	1.273081	0.291732	5156.782227
7493.018056	1.244663	0.291732	6319.297852
7493.018920	1.218087	0.291732	7371.725098
7493.019891	1.027013	0.291732	8368.955078
7493.020853	0.157592	0.291732	8520.558594
7493.021743	0.083723	0.291732	8595.072266
7493.022666	0.083807	0.291732	8672.426758
7493.023608	0.083771	0.291732	8751.338867
7493.024480	0.083873	0.291732	8824.476562
7493.025352	0.083738	0.291732	8897.496094
7493.026323	0.083804	0.291732	8978.869141
7493.027275	0.083829	0.291732	9058.674805
7493.028160	0.083840	0.291732	9132.873047
7493.029067	0.083859	0.291732	9208.932617
7494.101975	0.876639	0.287197	385.721313
7494.102860	1.317330	0.287197	1551.558594
7494.103738	1.331993	0.287197	2721.048828
7494.104705	1.304945	0.287197	3982.930664
7494.105643	1.273890	0.287197	5177.839844
7494.106538	1.245798	0.287197	6292.829102
7494.107426	1.218160	0.287197	7374.555664
7494.108458	0.978014	0.287197	8383.866211
7494.109386	0.145085	0.287197	8518.505859
7494.110256	0.083771	0.287197	8591.386719
7494.111258	0.083950	0.287197	8675.504883
7494.112162	0.083881	0.287197	8751.333008
7494.113073	0.083928	0.287197	8827.791992
7494.113947	0.083965	0.287197	8901.177734
7494.114976	0.083873	0.287197	8987.483398
7494.115869	0.083855	0.287197	9062.366211
7494.116785	0.083958	0.287197	9139.271484
7494.117648	0.083958	0.287197	9211.726562
7495.076947	0.963329	0.287458	552.950745
7495.077997	1.332638	0.287458	1952.220459
7495.078880	1.324702	0.287458	3121.932617
7495.079800	1.295347	0.287458	4313.651367
7495.080880	1.261348	0.287458	5675.906738
7495.081831	1.232241	0.287458	6847.768066
7495.082702	1.206105	0.287458	7898.285156
7495.083748	0.522964	0.287458	8445.305664
7495.084779	0.086158	0.287458	8534.134766
7495.085664	0.083844	0.287458	8608.336914
7495.086621	0.084027	0.287458	8688.750977
7495.087668	0.083939	0.287458	8776.635742
7495.088601	0.084005	0.287458	8855.012695
7495.089464	0.083862	0.287458	8927.385742
7495.090546	0.084005	0.287458	9018.279297
7495.091541	0.083851	0.287458	9101.710937
7495.092436	0.083822	0.287458	9176.731445
7495.093403	0.083877	0.287458	9257.840820
7496.166396	0.910701	0.289122	438.047028
7496.167282	1.321414	0.289122	1608.819336
7496.168151	1.330605	0.289122	2765.115479
7496.169140	1.301916	0.289122	4052.710937
7496.170095	1.271605	0.289122	5267.093750
7496.170997	1.243480	0.289122	6388.712891
7496.171915	1.216366	0.289122	7505.336914
7496.172880	0.968134	0.289122	8439.585937
7496.173807	0.135850	0.289122	8565.518555
7496.174671	0.083796	0.289122	8637.918945
7496.175640	0.083914	0.289122	8719.231445
7496.176569	0.083862	0.289122	8797.139648
7496.177472	0.083895	0.289122	8872.897461
7496.178343	0.083947	0.289122	8946.014648
7496.179314	0.083833	0.289122	9027.416016
7496.180242	0.083906	0.289122	9105.281250
7496.181120	0.083939	0.289122	9178.979492
7496.182090	0.083936	0.289122	9260.396484
7497.139639	0.846544	0.284707	357.241669
7497.140606	1.315876	0.284707	1629.694214
7497.141584	1.328624	0.284707	2929.088867
7497.142508	1.300170	0.284707	4130.445801
7497.143381	1.272037	0.284707	5240.934570
7497.144417	1.240862	0.284707	6526.467773
7497.145310	1.213403	0.284707	7610.037109
7497.146186	0.970063	0.284707	8459.812500
7497.147080	0.147517	0.284707	8591.692383
7497.148101	0.083760	0.284707	8677.210937
7497.148999	0.083837	0.284707	8752.496094
7497.149872	0.083895	0.284707	8825.736328
7497.150861	0.083917	0.284707	8908.730469
7497.151790	0.083793	0.284707	8986.574219
7497.152711	0.083932	0.284707	9063.875000
7497.153574	0.083903	0.284707	9136.283203
7497.154619	0.083888	0.284707	9223.946289
7497.155502	0.083859	0.284707	9297.993164
7498.230822	0.933138	0.287595	494.563354
7498.231713	1.325054	0.287595	1675.186157
7498.232586	1.329382	0.287595	2835.736816
7498.233676	1.296870	0.287595	4249.325195
7498.234672	1.265065	0.287595	5509.329590
7498.235567	1.237679	0.287595	6617.052734
7498.236560	1.208192	0.287595	7816.787598
7498.237615	0.593939	0.287595	8443.393555
7498.238497	0.090905	0.287595	8523.571289
7498.239377	0.083870	0.287595	8597.376953
7498.240484	0.083965	0.287595	8690.326172
7498.241440	0.083815	0.287595	8770.453125
7498.242310	0.083943	0.287595	8843.483398
7498.243345	0.083976	0.287595	8930.398437
7498.244371	0.083906	0.287595	9016.486328
7498.245259	0.083917	0.287595	9091.004883
7498.246170	0.084001	0.287595	9167.530273
7498.247237	0.083958	0.287595	9257.113281
7499.201538	0.884187	0.285577	440.325104
7499.202467	1.323647	0.285577	1669.993652
7499.203384	1.328602	0.285577	2888.322021
7499.204276	1.301667	0.285577	4049.409424
7499.205194	1.272166	0.285577	5217.257324
7499.206159	1.242327	0.285577	6416.102539
7499.207090	1.214454	0.285577	7546.759766
7499.207958	0.999478	0.285577	8414.306641
7499.208953	0.137948	0.285577	8551.564453
7499.209886	0.083687	0.285577	8629.643555
7499.210746	0.083903	0.285577	8701.799805
7499.211694	0.083910	0.285577	8781.346680
7499.212627	0.083873	0.285577	8859.600586
7499.213551	0.083884	0.285577	8937.109375
7499.214416	0.083848	0.285577	9009.637695
7499.215375	0.083895	0.285577	9090.092773
7499.216316	0.083881	0.285577	9169.024414
7499.217209	0.083895	0.285577	9243.943359
7500.295618	0.857018	0.288627	371.088715
7500.296490	1.314642	0.288627	1517.456787
7500.297442	1.331550	0.288627	2785.092773
7500.298371	1.303817	0.288627	3996.338867
7500.299302	1.274143	0.288627	5182.565918
7500.300174	1.246721	0.288627	6269.707031
7500.301093	1.218135	0.288627	7389.172852
7500.302050	1.022384	0.288627	8367.594727
7500.302984	0.164213	0.288627	8520.969727
7500.303855	0.083833	0.288627	8593.988281
7500.304816	0.083903	0.288627	8674.619141
7500.305755	0.083958	0.288627	8753.455078
7500.306644	0.083906	0.288627	8828.047852
7500.307511	0.083881	0.288627	8900.772461
7500.308471	0.083925	0.288627	8981.339844
7500.309399	0.083965	0.288627	9059.258789
7500.310263	0.083987	0.288627	9131.823242
7500.311267	0.083895	0.288627	9216.053711
7501.264334	0.876735	0.286173	388.393433
7501.265214	1.317067	0.286173	1547.411987
7501.266083	1.331177	0.286173	2704.204590
7501.267193	1.300053	0.286173	4147.262695
7501.268100	1.270459	0.286173	5299.569336
7501.268972	1.243671	0.286173	6384.049805
7501.269992	1.213667	0.286173	7621.990234
7501.270990	0.836034	0.286173	8456.352539
7501.271870	0.114598	0.286173	8557.199219
7501.272727	0.083837	0.286173	8629.046875
7501.273794	0.083881	0.286173	8718.547852
7501.274706	0.083881	0.286173	8795.046875
7501.275581	0.083892	0.286173	8868.452148
7501.276554	0.083936	0.286173	8950.121094
7501.277558	0.083921	0.286173	9034.377930
7501.278444	0.083840	0.286173	9108.660156
7501.279309	0.083928	0.286173	9181.257812
7501.280395	0.083873	0.286173	9272.343750
7502.359013	0.880313	0.285094	407.584686
7502.360083	1.328401	0.285094	1828.973755
7502.361053	1.325050	0.285094	3114.272217
7502.361919	1.297478	0.285094	4237.888184
7502.362962	1.264530	0.285094	5556.792969
7502.363988	1.233358	0.285094	6822.218262
7502.364868	1.206691	0.285094	7884.105957
7502.365810	0.667134	0.285094	8512.545898
7502.366876	0.089246	0.285094	8607.681641
7502.367802	0.083815	0.285094	8685.293945
7502.368659	0.083848	0.285094	8757.151367
7502.369695	0.083881	0.285094	8844.051758
7502.370712	0.083877	0.285094	8929.354492
7502.371587	0.083910	0.285094	9002.775391
7502.372539	0.083954	0.285094	9082.699219
7502.373603	0.083987	0.285094	9172.061523
7502.374531	0.084001	0.285094	9250.014648
7502.375398	0.083950	0.285094	9322.799805
7503.327257	0.917179	0.287092	476.933044
7503.328153	1.323369	0.287092	1662.671875
7503.329075	1.329456	0.287092	2888.429932
7503.329939	1.302715	0.287092	4013.975586
7503.330904	1.271587	0.287092	5241.057129
7503.331851	1.241993	0.287092	6417.224609
7503.332775	1.214857	0.287092	7539.752930
7503.333642	0.986481	0.287092	8395.031250
7503.334618	0.141562	0.287092	8533.196289
7503.335570	0.083749	0.287092	8612.924805
7503.336460	0.083969	0.287092	8687.657227
7503.337376	0.083910	0.287092	8764.518555
7503.338318	0.083910	0.287092	8843.561523
7503.339245	0.083862	0.287092	8921.301758
7503.340124	0.083903	0.287092	8995.051758
7503.341028	0.083815	0.287092	9070.820312
7503.341991	0.083917	0.287092	9151.632812
7503.342882	0.083921	0.287092	9226.406250
7504.423446	0.925594	0.284610	470.201965
7504.424370	1.325471	0.284610	1694.937256
7504.425251	1.329606	0.284610	2866.319824
7504.426235	1.300302	0.284610	4145.816406
7504.427264	1.267115	0.284610	5449.678223
7504.428156	1.239287	0.284610	6555.122070
7504.429024	1.212510	0.284610	7607.580566
7504.430110	0.745605	0.284610	8417.308594
7504.431022	0.099910	0.284610	8508.425781
7504.431892	0.083833	0.284610	8581.360352
7504.432894	0.083906	0.284610	8665.434570
7504.433898	0.083866	0.284610	8749.635742
7504.434776	0.083936	0.284610	8823.331055
7504.435632	0.083965	0.284610	8895.205078
7504.436686	0.083892	0.284610	8983.626953
7504.437615	0.083910	0.284610	9061.579102
7504.438490	0.083895	0.284610	9134.987305
7504.439448	0.084064	0.284610	9215.520508
7505.389037	0.879899	0.290318	408.272980
7505.389930	1.320311	0.290318	1587.310913
7505.390800	1.331459	0.290318	2745.679932
7505.391793	1.302788	0.290318	4039.348389
7505.392744	1.271949	0.290318	5248.972168
7505.393655	1.243590	0.290318	6381.882812
7505.394535	1.216707	0.290318	7452.584473
7505.395502	0.971686	0.290318	8392.205078
7505.396463	0.140999	0.290318	8527.705078
7505.397333	0.083807	0.290318	8600.617187
7505.398242	0.083910	0.290318	8676.891602
7505.399202	0.083921	0.290318	8757.456055
7505.400125	0.083965	0.290318	8834.956055
7505.401002	0.083925	0.290318	8908.557617
7505.401952	0.083958	0.290318	8988.317383
7505.402882	0.083914	0.290318	9066.357422
7505.403810	0.083925	0.290318	9144.239258
7505.404671	0.083983	0.290318	9216.548828
7506.489291	0.867971	0.282282	374.095581
7506.490176	1.315265	0.282282	1538.105103
7506.491149	1.329877	0.282282	2832.075195
7506.492110	1.301342	0.282282	4082.664551
7506.492993	1.272931	0.282282	5206.662598
7506.493917	1.244040	0.282282	6356.156250
7506.494867	1.215425	0.282282	7510.809570
7506.495799	0.981716	0.282282	8425.769531
7506.496680	0.151802	0.282282	8559.506836
7506.497641	0.083738	0.282282	8639.978516
7506.498580	0.083811	0.282282	8718.676758
7506.499486	0.083895	0.282282	8794.685547
7506.500350	0.083888	0.282282	8867.165039
7506.501327	0.083928	0.282282	8949.163086
7506.502279	0.083888	0.282282	9029.024414
7506.503165	0.083954	0.282282	9103.407227
7506.504098	0.083932	0.282282	9181.715820
7506.505055	0.083925	0.282282	9262.031250
7507.451322	0.848555	0.288180	358.938629
7507.452184	1.313837	0.288180	1491.465820
7507.453305	1.327599	0.288180	2979.704102
7507.454217	1.299240	0.288180	4164.610352
7507.455084	1.271404	0.288180	5266.917480
7507.456169	1.237950	0.288180	6610.093750
7507.457152	1.208752	0.288180	7798.297363
7507.458035	0.799435	0.288180	8504.198242
7507.458896	0.109937	0.288180	8598.853516
7507.460020	0.083844	0.288180	8693.093750
7507.460897	0.083921	0.288180	8766.692383
7507.461758	0.083881	0.288180	8838.914062
7507.462828	0.084045	0.288180	8928.842773
7507.463777	0.083892	0.288180	9008.456055
7507.464652	0.083870	0.288180	9081.841797
7507.465515	0.083881	0.288180	9154.230469
7507.466637	0.083939	0.288180	9248.410156
7507.467547	0.083859	0.288180	9324.721680
7508.556232	0.870992	0.278137	380.623688
7508.557117	1.316525	0.278137	1545.747925
7508.558028	1.331199	0.278137	2758.470215
7508.559002	1.302737	0.278137	4027.335937
7508.559931	1.273246	0.278137	5210.181152
7508.560796	1.245549	0.278137	6287.581055
7508.561763	1.217219	0.278137	7464.631836
7508.562717	1.010193	0.278137	8428.355469
7508.563610	0.161616	0.278137	8572.678711
7508.564518	0.083862	0.278137	8648.826172
7508.565442	0.083917	0.278137	8726.365234
7508.566388	0.083892	0.278137	8805.726562
7508.567286	0.083877	0.278137	8881.047852
7508.568194	0.083848	0.278137	8957.181641
7508.569149	0.083950	0.278137	9037.354492
7508.570068	0.083910	0.278137	9114.467773
7508.570927	0.083914	0.278137	9186.549805
7508.572008	0.083939	0.278137	9277.288086
7509.511107	0.857395	0.289549	367.822449
7509.511980	1.314723	0.289549	1515.575439
7509.512842	1.331689	0.289549	2663.491699
7509.513828	1.303846	0.289549	3949.084229
7509.514760	1.274205	0.289549	5136.643555
7509.515652	1.246685	0.289549	6248.686035
7509.516603	1.218398	0.289549	7407.382812
7509.517565	1.041185	0.289549	8409.002930
7509.518496	0.158529	0.289549	8556.593750
7509.519373	0.083833	0.289549	8630.115234
7509.520338	0.083837	0.289549	8711.017578
7509.521284	0.083848	0.289549	8790.337891
7509.522215	0.083932	0.289549	8868.478516
7509.523076	0.083866	0.289549	8940.687500
7509.524050	0.083881	0.289549	9022.387695
7509.524957	0.083884	0.289549	9098.470703
7509.525835	0.083833	0.289549	9172.076172
7509.526815	0.083859	0.289549	9254.257812
7510.622750	0.930520	0.273251	473.634674
7510.623673	1.325922	0.273251	1697.460205
7510.624554	1.329602	0.273251	2868.839600
7510.625530	1.300279	0.273251	4137.912109
7510.626567	1.266907	0.273251	5451.694336
7510.627462	1.239075	0.273251	6560.666016
7510.628328	1.212726	0.273251	7610.886719
7510.629401	0.754457	0.273251	8420.418945
7510.630342	0.097969	0.273251	8512.607422
7510.631210	0.083763	0.273251	8585.314453
7510.632177	0.083954	0.273251	8666.498047
7510.633208	0.083888	0.273251	8752.986328
7510.634082	0.083917	0.273251	8826.330078
7510.634941	0.083961	0.273251	8898.453125
7510.636006	0.083961	0.273251	8987.872070
7510.636944	0.083910	0.273251	9066.579102
7510.637807	0.083932	0.273251	9139.012695
7510.638737	0.083979	0.273251	9217.113281
7511.571910	0.856458	0.297940	371.702576
7511.572791	1.316221	0.297940	1531.292969
7511.573711	1.331777	0.297940	2756.528076
7511.574664	1.303282	0.297940	3998.556152
7511.575610	1.272806	0.297940	5202.630859
7511.576490	1.245502	0.297940	6298.672363
7511.577420	1.217596	0.297940	7431.037109
7511.578359	1.007728	0.297940	8377.293945
7511.579289	0.157416	0.297940	8523.690430
7511.580161	0.083778	0.297940	8596.745117
7511.581125	0.083903	0.297940	8677.626953
7511.582048	0.083881	0.297940	8755.048828
7511.582923	0.083859	0.297940	8828.424805
7511.583865	0.083756	0.297940	8907.323242
7511.584815	0.083800	0.297940	8986.933594
7511.585743	0.083892	0.297940	9064.785156
7511.586606	0.083851	0.297940	9137.148437
7511.587574	0.083877	0.297940	9218.341797
7512.692183	0.879957	0.270398	400.380585
7512.693226	1.328426	0.270398	1785.929443
7512.694102	1.328104	0.270398	2949.348633
7512.694980	1.301195	0.270398	4091.797852
7512.695971	1.269946	0.270398	5350.314453
7512.696909	1.240353	0.270398	6513.765625
7512.697836	1.212781	0.270398	7638.013672
7512.698705	0.931523	0.270398	8447.507812
7512.699746	0.109193	0.270398	8561.177734
7512.700636	0.083624	0.270398	8635.603516
7512.701507	0.083884	0.270398	8708.666992
7512.702486	0.083881	0.270398	8790.786133
7512.703443	0.083903	0.270398	8871.081055
7512.704365	0.083895	0.270398	8948.432617
7512.705225	0.083892	0.270398	9020.579102
7512.706276	0.083881	0.270398	9108.737305
7512.707152	0.083837	0.270398	9182.177734
7512.708025	0.083884	0.270398	9255.409180
7513.630140	0.862262	0.308514	366.461334
7513.631126	1.322175	0.308514	1670.126099
7513.632056	1.329100	0.308514	2906.189453
7513.632938	1.302169	0.308514	4054.702637
7513.633874	1.272806	0.308514	5246.049316
7513.634838	1.243140	0.308514	6444.436035
7513.635764	1.214678	0.308514	7569.227539
7513.636636	1.009816	0.308514	8449.787109
7513.637637	0.124285	0.308514	8574.196289
7513.638594	0.083833	0.308514	8654.424805
7513.639523	0.083895	0.308514	8732.363281
7513.640383	0.083851	0.308514	8804.475586
7513.641352	0.083818	0.308514	8885.695312
7513.642290	0.083862	0.308514	8964.358398
7513.643186	0.083972	0.308514	9039.597656
7513.644099	0.083936	0.308514	9116.230469
7513.645064	0.083914	0.308514	9197.207031
7513.645989	0.083851	0.308514	9274.769531
7514.761161	0.858413	0.268549	372.551300
7514.762036	1.315701	0.268549	1523.789307
7514.763002	1.330276	0.268549	2808.835937
7514.763933	1.302466	0.268549	4021.431641
7514.764853	1.273326	0.268549	5192.892090
7514.765725	1.245619	0.268549	6279.071777
7514.766700	1.216886	0.268549	7465.535645
7514.767659	0.998185	0.268549	8422.794922
7514.768534	0.157072	0.268549	8560.232422
7514.769451	0.083840	0.268549	8637.114258
7514.770410	0.083917	0.268549	8717.590820
7514.771339	0.083881	0.268549	8795.515625
7514.772216	0.083972	0.268549	8869.159180
7514.773162	0.083895	0.268549	8948.524414
7514.774118	0.083906	0.268549	9028.739258
7514.775039	0.083903	0.268549	9106.013672
7514.775902	0.083873	0.268549	9178.396484
7514.776879	0.083925	0.268549	9260.390625
7515.693029	0.868015	0.307898	389.738770
7515.693893	1.316213	0.307898	1526.947144
7515.694917	1.328591	0.307898	2887.424805
7515.695958	1.297141	0.307898	4237.748535
7515.696858	1.268221	0.307898	5379.147949
7515.697806	1.238936	0.307898	6553.659180
7515.698892	1.206438	0.307898	7863.850586
7515.699827	0.658846	0.307898	8479.872070
7515.700695	0.095885	0.307898	8563.100586
7515.701748	0.083877	0.307898	8651.422852
7515.702775	0.083873	0.307898	8737.560547
7515.703662	0.083917	0.307898	8811.995117
7515.704626	0.083928	0.307898	8892.902344
7515.705671	0.083936	0.307898	8980.615234
7515.706590	0.083965	0.307898	9057.779297
7515.707452	0.083899	0.307898	9130.100586
7515.708521	0.083936	0.307898	9219.828125
7515.709509	0.083866	0.307898	9302.687500
7516.832207	0.864840	0.278886	377.070282
7516.833073	1.314965	0.278886	1515.829712
7516.834054	1.330591	0.278886	2821.139160
7516.834990	1.302986	0.278886	4040.733887
7516.835864	1.274048	0.278886	5154.251953
7516.836755	1.246113	0.278886	6264.539062
7516.837715	1.216798	0.278886	7432.665039
7516.838690	0.996595	0.278886	8404.345703
7516.839583	0.154702	0.278886	8542.495117
7516.840500	0.083796	0.278886	8619.335937
7516.841463	0.083771	0.278886	8700.006836
7516.842351	0.083833	0.278886	8774.450195
7516.843264	0.083884	0.278886	8851.036133
7516.844221	0.083826	0.278886	8931.256836
7516.845142	0.083910	0.278886	9008.538086
7516.846003	0.083826	0.278886	9080.711914
7516.846974	0.083870	0.278886	9162.149414
7516.847925	0.083870	0.278886	9241.909180
7517.753806	0.864027	0.310243	376.715820
7517.754678	1.315547	0.310243	1523.872681
7517.755723	1.328800	0.310243	2912.468750
7517.756625	1.301060	0.310243	4086.024414
7517.757502	1.272773	0.310243	5202.246582
7517.758429	1.244081	0.310243	6355.509766
7517.759440	1.213843	0.310243	7582.705078
7517.760356	0.948435	0.310243	8451.471680
7517.761220	0.142628	0.310243	8574.702148
7517.762307	0.083639	0.310243	8665.617187
7517.763185	0.083818	0.310243	8739.209961
7517.764059	0.083895	0.310243	8812.534180
7517.764929	0.083914	0.310243	8885.539062
7517.765970	0.083800	0.310243	8972.775391
7517.766855	0.083807	0.310243	9046.945312
7517.767732	0.083840	0.310243	9120.473633
7517.768722	0.083899	0.310243	9203.533203
7517.769677	0.083892	0.310243	9283.649414
7518.899161	0.884736	0.284582	401.670319
7518.900038	1.317638	0.284582	1557.238770
7518.901027	1.329412	0.284582	2872.026855
7518.902076	1.297518	0.284582	4233.123535
7518.903000	1.267991	0.284582	5404.747070
7518.903867	1.240155	0.284582	6479.961426
7518.904980	1.207885	0.284582	7824.336914
7518.905957	0.656155	0.284582	8465.400391
7518.906840	0.095090	0.284582	8549.365234
7518.907845	0.084020	0.284582	8633.804687
7518.908890	0.083976	0.284582	8721.559570
7518.909780	0.084023	0.284582	8796.340820
7518.910641	0.083899	0.284582	8868.578125
7518.911735	0.084082	0.284582	8960.563477
7518.912691	0.083932	0.284582	9040.802734
7518.913552	0.083994	0.284582	9113.122070
7518.914581	0.083987	0.284582	9199.544922
7518.915622	0.083943	0.284582	9286.929687
7519.814613	0.868627	0.299902	387.407501
7519.815473	1.315265	0.299902	1518.535278
7519.816394	1.330953	0.299902	2744.343262
7519.817367	1.302539	0.299902	4011.713867
7519.818293	1.273012	0.299902	5190.522461
7519.819176	1.245136	0.299902	6289.977051
7519.820156	1.216318	0.299902	7481.968750
7519.821103	0.993076	0.299902	8422.412109
7519.822007	0.146067	0.299902	8554.457031
7519.822908	0.083815	0.299902	8629.973633
7519.823843	0.083987	0.299902	8708.500977
7519.824802	0.083939	0.299902	8788.999023
7519.825674	0.083939	0.299902	8862.194336
7519.826604	0.083884	0.299902	8940.207031
7519.827538	0.083884	0.299902	9018.554687
7519.828455	0.083936	0.299902	9095.523437
7519.829333	0.083928	0.299902	9169.212891
7519.830281	0.083862	0.299902	9248.714844
7520.965598	0.864939	0.262716	397.006989
7520.966544	1.322545	0.262716	1648.134644
7520.967461	1.329265	0.262716	2867.070801
7520.968341	1.301880	0.262716	4012.725098
7520.969328	1.271272	0.262716	5267.470703
7520.970251	1.242697	0.262716	6414.479492
7520.971137	1.215992	0.262716	7491.848633
7520.972057	1.009768	0.262716	8420.834961
7520.973016	0.140138	0.262716	8555.227539
7520.973949	0.083741	0.262716	8633.358398
7520.974833	0.083866	0.262716	8707.496094
7520.975769	0.083903	0.262716	8786.029297
7520.976725	0.083851	0.262716	8866.191406
7520.977643	0.083789	0.262716	8943.109375
7520.978503	0.083866	0.262716	9015.234375
7520.979455	0.083844	0.262716	9095.053711
7520.980398	0.083818	0.262716	9174.094727
7520.981315	0.083822	0.262716	9250.959961
7521.877567	0.964402	0.299850	535.243042
7521.878627	1.332228	0.299850	1947.404419
7521.879517	1.324691	0.299850	3126.379395
7521.880433	1.295237	0.299850	4312.816406
7521.881539	1.260593	0.299850	5707.032715
7521.882487	1.231688	0.299850	6874.673340
7521.883362	1.205413	0.299850	7929.409180
7521.884439	0.479744	0.299850	8446.092773
7521.885448	0.085635	0.299850	8532.498047
7521.886338	0.083866	0.299850	8607.138672
7521.887288	0.083899	0.299850	8686.842773
7521.888333	0.083848	0.299850	8774.463867
7521.889252	0.083851	0.299850	8851.523437
7521.890111	0.083826	0.299850	8923.529297
7521.891179	0.083892	0.299850	9013.125977
7521.892179	0.083851	0.299850	9096.977539
7521.893058	0.083873	0.299850	9170.702148
7521.894032	0.083950	0.299850	9252.469727
7523.029484	0.878287	0.249818	417.186462
7523.030447	1.323896	0.249818	1692.098633
7523.031377	1.328452	0.249818	2927.559082
7523.032248	1.301660	0.249818	4061.305176
7523.033224	1.271440	0.249818	5302.230957
7523.034147	1.241671	0.249818	6448.293457
7523.035078	1.214106	0.249818	7578.626465
7523.035944	0.961886	0.249818	8411.620117
7523.036898	0.137073	0.249818	8542.387695
7523.037851	0.083745	0.249818	8622.197266
7523.038740	0.083822	0.249818	8696.714844
7523.039653	0.083837	0.249818	8773.257812
7523.040598	0.083818	0.249818	8852.465820
7523.041495	0.083745	0.249818	8927.584961
7523.042365	0.083822	0.249818	9000.509766
7523.043342	0.083815	0.249818	9082.396484
7523.044285	0.083822	0.249818	9161.440430
7523.045175	0.083862	0.249818	9236.078125
7523.942377	0.889589	0.309485	404.762817
7523.943302	1.321161	0.309485	1626.836670
7523.944168	1.330682	0.309485	2779.207520
7523.945209	1.299943	0.309485	4132.447754
7523.946098	1.271477	0.309485	5262.791016
7523.946970	1.244260	0.309485	6347.786133
7523.947935	1.215498	0.309485	7520.741699
7523.948894	0.953624	0.309485	8435.267578
7523.949812	0.133872	0.309485	8558.162109
7523.950687	0.083719	0.309485	8631.416992
7523.951708	0.083862	0.309485	8717.040039
7523.952603	0.083789	0.309485	8792.031250
7523.953477	0.083851	0.309485	8865.317383
7523.954352	0.083925	0.309485	8938.750977
7523.955392	0.083800	0.309485	9025.903320
7523.956281	0.083837	0.309485	9100.434570
7523.957153	0.083888	0.309485	9173.584961
7523.958163	0.083855	0.309485	9258.278320
7525.092300	0.863452	0.258467	379.055481
7525.093162	1.315060	0.258467	1512.636963
7525.094245	1.327826	0.258467	2950.672363
7525.095246	1.297035	0.258467	4249.004395
7525.096120	1.268987	0.258467	5358.098633
7525.097105	1.238727	0.258467	6578.244629
7525.098171	1.207042	0.258467	7864.951660
7525.099074	0.701320	0.258467	8498.243164
7525.099945	0.098683	0.258467	8584.196289
7525.101041	0.083947	0.258467	8676.202148
7525.102018	0.083892	0.258467	8758.164062
7525.102883	0.083859	0.258467	8830.702148
7525.103947	0.083903	0.258467	8919.974609
7525.104991	0.083840	0.258467	9007.503906
7525.105876	0.083793	0.258467	9081.660156
7525.106810	0.083895	0.258467	9160.018555
7525.107875	0.083914	0.258467	9249.386719
7525.108822	0.083829	0.258467	9328.773437
7526.008817	0.900839	0.306649	432.402527
7526.009776	1.323655	0.306649	1701.787354
7526.010702	1.328485	0.306649	2931.964600
7526.011568	1.301488	0.306649	4059.053223
7526.012548	1.271221	0.306649	5304.849609
7526.013483	1.241847	0.306649	6465.976562
7526.014371	1.214550	0.306649	7544.496582
7526.015250	0.965922	0.306649	8393.541992
7526.016229	0.135439	0.306649	8526.137695
7526.017184	0.083752	0.306649	8606.121094
7526.018077	0.083947	0.306649	8681.084961
7526.018985	0.083800	0.306649	8757.175781
7526.019941	0.083837	0.306649	8837.323242
7526.020869	0.083829	0.306649	8915.117187
7526.021735	0.083877	0.306649	8987.754883
7526.022686	0.083800	0.306649	9067.449219
7526.023638	0.083782	0.306649	9147.208984
7526.024515	0.083833	0.306649	9220.730469
7527.156682	0.862998	0.253749	371.952179
7527.157640	1.316968	0.253749	1633.607178
7527.158597	1.328807	0.253749	2905.275879
7527.159532	1.300668	0.253749	4121.400391
7527.160398	1.272180	0.253749	5223.108398
7527.161420	1.240785	0.253749	6491.190430
7527.162335	1.213180	0.253749	7601.250000
7527.163218	0.966006	0.253749	8454.233398
7527.164136	0.145723	0.253749	8588.006836
7527.165136	0.083807	0.253749	8671.814453
7527.166051	0.083829	0.253749	8748.518555
7527.166938	0.083826	0.253749	8822.872070
7527.167953	0.083936	0.253749	8908.066406
7527.168868	0.083936	0.253749	8984.867187
7527.169794	0.083892	0.253749	9062.550781
7527.170653	0.083906	0.253749	9134.625977
7527.171694	0.083822	0.253749	9221.884766
7527.172564	0.083851	0.253749	9294.834961
7528.072635	0.847046	0.313062	359.147461
7528.073638	1.321985	0.313062	1685.098267
7528.074694	1.325197	0.313062	3084.505859
7528.075589	1.297013	0.313062	4245.332520
7528.076517	1.267324	0.313062	5421.409180
7528.077583	1.234647	0.313062	6737.542969
7528.078538	1.206291	0.313062	7889.551270
7528.079417	0.711903	0.313062	8515.314453
7528.080473	0.091036	0.313062	8611.449219
7528.081487	0.083796	0.313062	8696.418945
7528.082382	0.083979	0.313062	8771.581055
7528.083346	0.083884	0.313062	8852.445312
7528.084393	0.083976	0.313062	8940.368164
7528.085308	0.083884	0.313062	9017.122070
7528.086166	0.083903	0.313062	9089.110352
7528.087239	0.083954	0.313062	9179.192383
7528.088242	0.084001	0.313062	9263.446289
7528.089118	0.083796	0.313062	9336.851562
7529.219067	0.882839	0.260187	420.231506
7529.220007	1.322725	0.260187	1663.592529
7529.220882	1.330133	0.260187	2827.458984
7529.221780	1.303143	0.260187	3997.681641
7529.222723	1.272268	0.260187	5197.430664
7529.223676	1.243099	0.260187	6382.104492
7529.224575	1.216183	0.260187	7475.453125
7529.225486	1.009296	0.260187	8394.921875
7529.226449	0.147546	0.260187	8537.008789
7529.227377	0.083705	0.260187	8614.686523
7529.228243	0.083833	0.260187	8687.286133
7529.229210	0.083877	0.260187	8768.395508
7529.230142	0.083870	0.260187	8846.561523
7529.231010	0.083881	0.260187	8919.370117
7529.231943	0.083851	0.260187	8997.603516
7529.232878	0.083793	0.260187	9075.950195
7529.233799	0.083855	0.260187	9153.180664
7529.234676	0.083822	0.260187	9226.692383
7530.138073	0.885813	0.311866	401.273254
7530.138954	1.317685	0.311866	1562.154053
7530.139821	1.331125	0.311866	2716.239746
7530.140922	1.299606	0.311866	4147.105469
7530.141848	1.269804	0.311866	5322.943359
7530.142725	1.242634	0.311866	6412.733398
7530.143712	1.213400	0.311866	7610.358887
7530.144729	0.826772	0.311866	8451.186523
7530.145621	0.109666	0.311866	8549.007812
7530.146482	0.083763	0.311866	8621.127930
7530.147555	0.083829	0.311866	8711.077148
7530.148468	0.083818	0.311866	8787.603516
7530.149342	0.083811	0.311866	8860.854492
7530.150330	0.083818	0.311866	8943.666992
7530.151334	0.083811	0.311866	9027.813477
7530.152203	0.083848	0.311866	9100.676758
7530.153068	0.083749	0.311866	9173.119141
7530.154121	0.083822	0.311866	9261.383789
7531.283494	0.934061	0.252642	482.909668
7531.284513	1.330419	0.252642	1838.606323
7531.285398	1.326823	0.252642	3012.844238
7531.286384	1.296676	0.252642	4291.366699
7531.287443	1.262629	0.252642	5628.491211
7531.288364	1.234200	0.252642	6765.189941
7531.289228	1.207482	0.252642	7808.454102
7531.290308	0.579580	0.252642	8434.400391
7531.291287	0.087682	0.252642	8520.241211
7531.292174	0.083774	0.252642	8594.548828
7531.293161	0.083969	0.252642	8677.425781
7531.294226	0.083884	0.252642	8766.762695
7531.295126	0.083932	0.252642	8842.301758
7531.295990	0.083859	0.252642	8914.755859
7531.297096	0.083888	0.252642	9007.536133
7531.298070	0.083972	0.252642	9089.325195
7531.298936	0.083884	0.252642	9161.968750
7531.299994	0.083917	0.252642	9250.752930
7532.200883	0.854960	0.317804	358.228119
7532.201855	1.321381	0.317804	1642.610107
7532.202783	1.329474	0.317804	2876.361816
7532.203667	1.302839	0.317804	4028.071777
7532.204607	1.272982	0.317804	5224.674805
7532.205573	1.243136	0.317804	6425.543945
7532.206503	1.215106	0.317804	7555.592773
7532.207364	1.017528	0.317804	8431.684570
7532.208334	0.150399	0.317804	8577.571289
7532.209274	0.083727	0.317804	8656.274414
7532.210181	0.083851	0.317804	8732.327148
7532.211045	0.083877	0.317804	8804.796875
7532.212014	0.083818	0.317804	8886.016602
7532.212972	0.083804	0.317804	8966.300781
7532.213864	0.083932	0.317804	9041.167969
7532.214775	0.083870	0.317804	9117.573242
7532.215737	0.083851	0.317804	9198.238281
7532.216624	0.083895	0.317804	9272.653320
7533.347369	0.942220	0.256863	490.896851
7533.348271	1.325720	0.256863	1686.696411
7533.349202	1.328295	0.256863	2923.338867
7533.350069	1.300704	0.256863	4051.049561
7533.351114	1.268533	0.256863	5376.666016
7533.352016	1.240595	0.256863	6495.682129
7533.352897	1.214183	0.256863	7565.377930
7533.353909	0.857487	0.256863	8433.154297
7533.354825	0.114716	0.256863	8538.233398
7533.355749	0.083807	0.256863	8615.671875
7533.356609	0.083877	0.256863	8687.805664
7533.357650	0.083815	0.256863	8775.056641
7533.358524	0.083829	0.256863	8848.323242
7533.359398	0.083921	0.256863	8921.669922
7533.360360	0.083899	0.256863	9002.380859
7533.361314	0.083833	0.256863	9082.357422
7533.362229	0.083837	0.256863	9159.068359
7533.363106	0.083859	0.256863	9232.612305
7534.263260	0.883850	0.314964	396.848694
7534.264185	1.320275	0.314964	1618.102783
7534.265050	1.330968	0.314964	2769.390137
7534.266029	1.302806	0.314964	4044.837402
7534.266940	1.272579	0.314964	5204.157227
7534.267826	1.245194	0.314964	6307.399414
7534.268770	1.216582	0.314964	7455.853027
7534.269732	0.971331	0.314964	8390.273437
7534.270663	0.142500	0.314964	8522.941406
7534.271524	0.083734	0.314964	8595.036133
7534.272496	0.083822	0.314964	8676.510742
7534.273446	0.083807	0.314964	8756.127930
7534.274338	0.083862	0.314964	8830.933594
7534.275253	0.083826	0.314964	8907.633789
7534.276207	0.083848	0.314964	8987.624023
7534.277129	0.083837	0.314964	9064.921875
7534.277987	0.083895	0.314964	9136.904297
7534.278965	0.083756	0.314964	9218.817383
7535.411682	0.901311	0.249882	415.504395
7535.412613	1.322508	0.249882	1646.759766
7535.413496	1.330481	0.249882	2821.574463
7535.414408	1.303151	0.249882	4010.047852
7535.415379	1.272345	0.249882	5245.494629
7535.416305	1.243667	0.249882	6397.130371
7535.417169	1.217219	0.249882	7448.807617
7535.418143	1.013584	0.249882	8436.038086
7535.419095	0.152395	0.249882	8581.118164
7535.419996	0.083749	0.249882	8656.576172
7535.420864	0.083818	0.249882	8729.330078
7535.421822	0.083855	0.249882	8809.663086
7535.422744	0.083833	0.249882	8886.957031
7535.423620	0.083862	0.249882	8960.419922
7535.424593	0.083870	0.249882	9042.025391
7535.425537	0.083840	0.249882	9121.170898
7535.426428	0.083914	0.249882	9195.937500
7535.427333	0.083837	0.249882	9271.809570
7536.327640	0.869000	0.324080	384.967102
7536.328514	1.315866	0.324080	1535.033447
7536.329427	1.330591	0.324080	2749.862793
7536.330502	1.299873	0.324080	4147.226562
7536.331384	1.271104	0.324080	5268.339844
7536.332246	1.244231	0.324080	6340.866699
7536.333271	1.213198	0.324080	7584.395020
7536.334251	0.878328	0.324080	8445.156250
7536.335122	0.122216	0.324080	8551.606445
7536.335991	0.083789	0.324080	8624.418945
7536.337125	0.083822	0.324080	8719.472656
7536.338027	0.083892	0.324080	8795.142578
7536.338891	0.083906	0.324080	8867.637695
7536.339955	0.083958	0.324080	8956.968750
7536.340928	0.083877	0.324080	9038.581055
7536.341799	0.083833	0.324080	9111.599609
7536.342662	0.083892	0.324080	9183.998047
7536.343768	0.083800	0.324080	9276.680664
7537.479675	0.903201	0.245354	430.826721
7537.480564	1.320348	0.245354	1604.615967
7537.481424	1.330953	0.245354	2749.235840
7537.482382	1.302960	0.245354	3997.471680
7537.483345	1.272389	0.245354	5222.782227
7537.484243	1.244388	0.245354	6340.243164
7537.485158	1.217128	0.245354	7453.915039
7537.486096	1.020249	0.245354	8410.908203
7537.487044	0.146411	0.245354	8549.706055
7537.487922	0.083793	0.245354	8623.276367
7537.489018	0.083851	0.245354	8715.177734
7537.490060	0.083892	0.245354	8802.592773
7537.491003	0.083877	0.245354	8881.688477
7537.491867	0.083884	0.245354	8954.164062
7537.492926	0.083961	0.245354	9043.079102
7537.493935	0.083826	0.245354	9127.659180
7537.494813	0.083932	0.245354	9201.351562
7537.495795	0.083866	0.245354	9283.708008
7538.389945	0.862980	0.324100	363.314453
7538.390943	1.323596	0.324100	1684.263428
7538.391873	1.328617	0.324100	2919.876953
7538.392752	1.301909	0.324100	4064.254883
7538.393712	1.271942	0.324100	5285.319336
7538.394653	1.242572	0.324100	6454.579590
7538.395553	1.214377	0.324100	7547.519531
7538.396448	1.007468	0.324100	8449.203125
7538.397373	0.149751	0.324100	8587.722656
7538.398339	0.083752	0.324100	8668.627930
7538.399224	0.083899	0.324100	8742.878906
7538.400159	0.083910	0.324100	8821.334961
7538.401125	0.083859	0.324100	8902.342773
7538.402060	0.083866	0.324100	8980.757812
7538.402936	0.083892	0.324100	9054.247070
7538.403867	0.083848	0.324100	9132.309570
7538.404819	0.083840	0.324100	9212.125977
7538.405731	0.083928	0.324100	9288.668945
7539.546162	0.944784	0.238933	514.907227
7539.547161	1.331107	0.238933	1844.683228
7539.548059	1.326321	0.238933	3035.719238
7539.548924	1.298317	0.238933	4158.763184
7539.550031	1.264702	0.238933	5558.788574
7539.550944	1.236097	0.238933	6687.345703
7539.551816	1.210019	0.238933	7742.482422
7539.552835	0.703469	0.238933	8459.317383
7539.553836	0.091395	0.238933	8550.803711
7539.554717	0.083730	0.238933	8624.570312
7539.555578	0.083811	0.238933	8696.731445
7539.556669	0.083862	0.238933	8788.225586
7539.557584	0.083851	0.238933	8864.949219
7539.558464	0.083884	0.238933	8938.767578
7539.559441	0.083881	0.238933	9020.718750
7539.560445	0.083833	0.238933	9104.886719
7539.561331	0.083862	0.238933	9179.188477
7539.562191	0.083855	0.238933	9251.303711
7540.452801	0.854421	0.323347	366.546783
7540.453667	1.313602	0.323347	1504.126343
7540.454583	1.331342	0.323347	2723.635254
7540.455553	1.303059	0.323347	3987.602539
7540.456478	1.273553	0.323347	5165.639648
7540.457345	1.246249	0.323347	6246.137695
7540.458320	1.217633	0.323347	7433.330078
7540.459278	1.024889	0.323347	8415.173828
7540.460176	0.166318	0.323347	8564.527344
7540.461077	0.083826	0.323347	8640.054687
7540.462005	0.083833	0.323347	8717.851562
7540.462955	0.083844	0.323347	8797.502930
7540.463843	0.083855	0.323347	8871.965820
7540.464756	0.083771	0.323347	8948.448242
7540.465724	0.083826	0.323347	9029.591797
7540.466611	0.083837	0.323347	9103.955078
7540.467492	0.083756	0.323347	9177.744141
7540.468435	0.083892	0.323347	9256.853516
7541.612982	0.844578	0.235779	356.411743
7541.613905	1.318715	0.235779	1573.585327
7541.614860	1.329485	0.235779	2843.243164
7541.615794	1.301825	0.235779	4059.147705
7541.616662	1.273484	0.235779	5164.531738
7541.617640	1.243575	0.235779	6380.748535
7541.618608	1.214689	0.235779	7556.567383
7541.619502	0.994050	0.235779	8445.248047
7541.620421	0.153314	0.235779	8586.143555
7541.621390	0.083774	0.235779	8667.321289
7541.622310	0.083833	0.235779	8744.447266
7541.623171	0.083855	0.235779	8816.646484
7541.624090	0.083862	0.235779	8893.715820
7541.625041	0.083848	0.235779	8973.455078
7541.625965	0.083881	0.235779	9050.960937
7541.626846	0.083815	0.235779	9124.801758
7541.627811	0.083848	0.235779	9205.714844
7541.628763	0.083837	0.235779	9285.527344
7542.514623	0.847701	0.327339	359.425415
7542.515568	1.314628	0.327339	1601.748535
7542.516616	1.327134	0.327339	2992.584717
7542.517492	1.299734	0.327339	4131.151367
7542.518358	1.271869	0.327339	5232.589844
7542.519401	1.239990	0.327339	6525.899414
7542.520353	1.211426	0.327339	7679.176758
7542.521226	0.908324	0.327339	8472.143555
7542.522120	0.129628	0.327339	8588.030273
7542.523209	0.083749	0.327339	8679.232422
7542.524110	0.083807	0.327339	8754.743164
7542.524974	0.083793	0.327339	8827.139648
7542.525978	0.083793	0.327339	8911.267578
7542.526961	0.083778	0.327339	8993.621094
7542.527836	0.083807	0.327339	9066.952148
7542.528698	0.083826	0.327339	9139.209961
7542.529799	0.083796	0.327339	9231.469727
7542.530688	0.083738	0.327339	9305.913086
7543.676429	0.909236	0.238688	456.436371
7543.677304	1.321729	0.238688	1612.948975
7543.678194	1.329448	0.238688	2796.157715
7543.679285	1.297474	0.238688	4211.702148
7543.680251	1.266925	0.238688	5435.551758
7543.681126	1.239617	0.238688	6520.216309
7543.682158	1.208910	0.238688	7767.811523
7543.683196	0.638166	0.238688	8430.228516
7543.684079	0.093527	0.238688	8512.812500
7543.685000	0.083749	0.238688	8589.945312
7543.686072	0.083925	0.238688	8679.912109
7543.687010	0.083837	0.238688	8758.550781
7543.687873	0.083899	0.238688	8830.955078
7543.688938	0.083925	0.238688	8920.334961
7543.689938	0.083796	0.238688	9004.130859
7543.690821	0.083870	0.238688	9078.187500
7543.691790	0.083914	0.238688	9159.500000
7543.692839	0.083899	0.238688	9247.509766
7544.576443	0.849935	0.335274	358.672699
7544.577394	1.318264	0.335274	1612.341919
7544.578322	1.329554	0.335274	2846.168457
7544.579211	1.302832	0.335274	4004.386230
7544.580117	1.274165	0.335274	5158.779785
7544.581055	1.244198	0.335274	6325.837402
7544.582019	1.215600	0.335274	7497.676270
7544.582908	1.044247	0.335274	8426.011719
7544.583841	0.164762	0.335274	8579.734375
7544.584787	0.083752	0.335274	8658.963867
7544.585669	0.083818	0.335274	8732.891602
7544.586579	0.083833	0.335274	8809.179687
7544.587518	0.083818	0.335274	8887.884766
7544.588456	0.083793	0.335274	8966.482422
7544.589346	0.083873	0.335274	9041.129883
7544.590249	0.083840	0.335274	9116.837891
7544.591207	0.083840	0.335274	9197.157227
7544.592136	0.083862	0.335274	9275.065430
7545.745335	0.860841	0.229479	363.274902
7545.746406	1.328148	0.229479	1785.721680
7545.747309	1.327474	0.229479	2984.431152
7545.748187	1.300430	0.229479	4126.208496
7545.749160	1.270049	0.229479	5361.965820
7545.750125	1.239679	0.229479	6558.255859
7545.751049	1.212089	0.229479	7678.225586
7545.751926	0.923441	0.229479	8488.083008
7545.752965	0.110391	0.229479	8602.779297
7545.753842	0.083734	0.229479	8676.213867
7545.754705	0.083903	0.229479	8748.622070
7545.755636	0.083899	0.229479	8826.732422
7545.756637	0.083837	0.229479	8910.653320
7545.757559	0.083837	0.229479	8987.951172
7545.758433	0.083932	0.229479	9061.307617
7545.759484	0.083943	0.229479	9149.531250
7545.760394	0.083888	0.229479	9225.869141
7545.761267	0.083969	0.229479	9299.173828
7546.639825	0.881763	0.340378	387.975586
7546.640709	1.317026	0.340378	1552.226929
7546.641714	1.328474	0.340378	2887.343262
7546.642775	1.296603	0.340378	4263.039062
7546.643672	1.267654	0.340378	5400.124512
7546.644562	1.239254	0.340378	6503.060547
7546.645666	1.207196	0.340378	7835.805176
7546.646625	0.671990	0.340378	8480.243164
7546.647492	0.096471	0.340378	8563.883789
7546.648533	0.083763	0.340378	8651.081055
7546.649561	0.083906	0.340378	8737.336914
7546.650451	0.083793	0.340378	8811.912109
7546.651391	0.083914	0.340378	8890.791016
7546.652434	0.083884	0.340378	8978.282227
7546.653362	0.083866	0.340378	9056.109375
7546.654219	0.083884	0.340378	9127.998047
7546.655271	0.084009	0.340378	9216.375000
7546.656298	0.083859	0.340378	9302.498047
7547.811789	0.858933	0.234466	371.059082
7547.812660	1.315349	0.234466	1516.728149
7547.813543	1.331979	0.234466	2692.865234
7547.814509	1.303784	0.234466	3952.320801
7547.815466	1.273696	0.234466	5171.248047
7547.816347	1.246322	0.234466	6269.257812
7547.817280	1.218453	0.234466	7406.074707
7547.818237	1.032275	0.234466	8393.961914
7547.819154	0.161862	0.234466	8542.388672
7547.820031	0.083833	0.234466	8615.910156
7547.820961	0.083818	0.234466	8693.861328
7547.821899	0.083818	0.234466	8772.483398
7547.822786	0.083892	0.234466	8846.895508
7547.823806	0.083818	0.234466	8932.390625
7547.824768	0.083873	0.234466	9013.077148
7547.825693	0.083866	0.234466	9090.653320
7547.826561	0.083796	0.234466	9163.388672
7547.827535	0.083866	0.234466	9245.074219
7548.702703	0.893873	0.347126	423.695923
7548.703588	1.319432	0.347126	1591.393555
7548.704465	1.331093	0.347126	2758.761719
7548.705427	1.303044	0.347126	4012.290527
7548.706425	1.271136	0.347126	5280.884766
7548.707357	1.242202	0.347126	6438.617187
7548.708220	1.215974	0.347126	7488.002930
7548.709264	0.909148	0.347126	8437.153320
7548.710134	0.129613	0.347126	8549.916992
7548.711005	0.083796	0.347126	8622.903320
7548.711877	0.083782	0.347126	8695.960937
7548.712941	0.083851	0.347126	8785.178711
7548.713836	0.083859	0.347126	8860.232422
7548.714709	0.083884	0.347126	8933.463867
7548.715709	0.083789	0.347126	9017.252930
7548.716639	0.083866	0.347126	9095.248047
7548.717561	0.083873	0.347126	9172.579102
7548.718424	0.083855	0.347126	9244.946289
7549.878809	0.922390	0.229156	466.729401
7549.879745	1.325951	0.229156	1707.819458
7549.880611	1.329130	0.229156	2858.845703
7549.881699	1.296665	0.229156	4269.617187
7549.882720	1.264197	0.229156	5560.362305
7549.883602	1.236830	0.229156	6651.246094
7549.884573	1.207830	0.229156	7824.048828
7549.885645	0.568956	0.229156	8433.969727
7549.886540	0.089583	0.229156	8514.146484
7549.887414	0.083756	0.229156	8587.349609
7549.888495	0.084020	0.229156	8678.174805
7549.889493	0.083881	0.229156	8761.887695
7549.890387	0.083899	0.229156	8836.893555
7549.891371	0.083954	0.229156	8919.503906
7549.892430	0.083851	0.229156	9008.302734
7549.893325	0.083884	0.229156	9083.378906
7549.894190	0.083877	0.229156	9155.932617
7549.895321	0.083888	0.229156	9250.809570
7550.767053	0.873761	0.353184	379.212250
7550.767939	1.316561	0.353184	1545.685547
7550.768803	1.331041	0.353184	2695.705322
7550.769816	1.302700	0.353184	4015.340576
7550.770745	1.272832	0.353184	5197.801758
7550.771637	1.245099	0.353184	6308.429687
7550.772564	1.217498	0.353184	7437.049805
7550.773518	1.022611	0.353184	8412.621094
7550.774431	0.158229	0.353184	8557.083984
7550.775307	0.083807	0.353184	8630.499023
7550.776256	0.083840	0.353184	8710.063477
7550.777184	0.083782	0.353184	8787.812500
7550.778109	0.083815	0.353184	8865.340820
7550.778971	0.083851	0.353184	8937.621094
7550.779939	0.083800	0.353184	9018.739258
7550.780899	0.083760	0.353184	9099.148437
7550.781788	0.083859	0.353184	9173.699219
7550.782704	0.083818	0.353184	9250.476562
7551.944123	0.851279	0.224326	360.942413
7551.945181	1.325189	0.224326	1762.992554
7551.946128	1.326522	0.224326	3019.208984
7551.947002	1.299371	0.224326	4154.859375
7551.947931	1.269664	0.224326	5334.377441
7551.949004	1.237214	0.224326	6661.908203
7551.949891	1.210232	0.224326	7735.383789
7551.950758	0.877936	0.224326	8496.553711
7551.951794	0.104458	0.224326	8604.772461
7551.952754	0.083723	0.224326	8685.146484
7551.953628	0.083833	0.224326	8758.416992
7551.954528	0.083793	0.224326	8833.830078
7551.955611	0.083829	0.224326	8924.617187
7551.956509	0.083763	0.224326	8999.836914
7551.957372	0.083804	0.224326	9072.159180
7551.958411	0.083877	0.224326	9159.307617
7551.959386	0.083767	0.224326	9240.980469
7551.960261	0.083826	0.224326	9314.328125
7552.833496	0.871959	0.353748	388.021851
7552.834438	1.322190	0.353748	1633.524780
7552.835369	1.329038	0.353748	2870.859131
7552.836234	1.302389	0.353748	3997.425537
7552.837214	1.271763	0.353748	5243.752930
7552.838151	1.242799	0.353748	6408.255859
7552.839015	1.216326	0.353748	7459.161133
7552.839987	0.990187	0.353748	8421.623047
7552.840935	0.144569	0.353748	8558.674805
7552.841812	0.083749	0.353748	8632.122070
7552.842695	0.083837	0.353748	8706.149414
7552.843649	0.083837	0.353748	8786.129883
7552.844607	0.083899	0.353748	8866.504883
7552.845496	0.083884	0.353748	8941.078125
7552.846401	0.083877	0.353748	9016.986328
7552.847373	0.083859	0.353748	9098.497070
7552.848290	0.083895	0.353748	9175.428711
7552.849152	0.083895	0.353748	9247.746094
7554.011073	0.849683	0.213881	360.265442
7554.012014	1.315122	0.213881	1597.795410
7554.012923	1.329774	0.213881	2806.560059
7554.013858	1.302268	0.213881	4024.180664
7554.014744	1.274147	0.213881	5153.074707
7554.015693	1.244550	0.213881	6334.152344
7554.016651	1.215718	0.213881	7498.810059
7554.017578	1.004674	0.213881	8430.142578
7554.018447	0.160759	0.213881	8569.842773
7554.019430	0.083698	0.213881	8652.117187
7554.020380	0.083888	0.213881	8731.810547
7554.021273	0.083870	0.213881	8806.706055
7554.022177	0.083829	0.213881	8882.487305
7554.023090	0.083829	0.213881	8959.023437
7554.024023	0.083888	0.213881	9037.291016
7554.024901	0.083855	0.213881	9110.916016
7554.025917	0.083862	0.213881	9196.120117
7554.026835	0.083789	0.213881	9273.038086
7554.896328	0.859186	0.348632	370.309052
7554.897286	1.316030	0.348632	1631.066040
7554.898329	1.326222	0.348632	3014.315430
7554.899258	1.297427	0.348632	4219.625000
7554.900117	1.269397	0.348632	5310.037109
7554.901183	1.237335	0.348632	6629.036133
7554.902204	1.206830	0.348632	7861.209473
7554.903086	0.730917	0.348632	8505.877930
7554.904049	0.100492	0.348632	8602.651367
7554.905120	0.083833	0.348632	8692.436523
7554.906034	0.083899	0.348632	8769.120117
7554.906902	0.083855	0.348632	8841.906250
7554.907986	0.083936	0.348632	8932.892578
7554.908978	0.083851	0.348632	9016.073242
7554.909874	0.083965	0.348632	9091.305664
7554.910864	0.083943	0.348632	9174.409180
7554.911932	0.083910	0.348632	9264.025391
7554.912824	0.083862	0.348632	9338.830078
7556.076560	0.933596	0.209466	475.200470
7556.077472	1.324863	0.209466	1683.475830
7556.078405	1.328240	0.209466	2922.723633
7556.079298	1.301345	0.209466	4084.824951
7556.080285	1.270261	0.209466	5338.572754
7556.081345	1.236812	0.209466	6649.592773
7556.082306	1.208368	0.209466	7810.834473
7556.083178	0.808835	0.209466	8516.138672
7556.084197	0.099371	0.209466	8617.398437
7556.085230	0.083719	0.209466	8703.880859
7556.086122	0.083756	0.209466	8778.590820
7556.087014	0.083829	0.209466	8853.366211
7556.088096	0.083778	0.209466	8944.013672
7556.089049	0.083767	0.209466	9023.843750
7556.089909	0.083895	0.209466	9095.994141
7556.090958	0.083866	0.209466	9183.969727
7556.091985	0.083818	0.209466	9270.050781
7556.092865	0.083837	0.209466	9343.827148
7556.963257	0.848818	0.336842	359.898987
7556.964123	1.312804	0.336842	1496.787109
7556.965177	1.328361	0.336842	2896.879150
7556.966078	1.300979	0.336842	4069.061279
7556.966958	1.272788	0.336842	5189.114746
7556.967896	1.243876	0.336842	6355.870117
7556.968888	1.214125	0.336842	7560.281738
7556.969813	0.961307	0.336842	8449.491211
7556.970681	0.145884	0.336842	8576.118164
7556.971738	0.083767	0.336842	8664.660156
7556.972626	0.083804	0.336842	8739.078125
7556.973499	0.083870	0.336842	8812.295898
7556.974378	0.083840	0.336842	8885.991211
7556.975428	0.083778	0.336842	8973.958008
7556.976312	0.083785	0.336842	9048.024414
7556.977187	0.083881	0.336842	9121.419922
7556.978166	0.083884	0.336842	9203.542969
7556.979102	0.083862	0.336842	9282.038086
7558.138829	0.861962	0.209136	380.125092
7558.139696	1.314862	0.209136	1520.110596
7558.140750	1.328200	0.209136	2920.032715
7558.141786	1.296804	0.209136	4263.521973
7558.142667	1.268328	0.209136	5380.918945
7558.143648	1.238452	0.209136	6595.840332
7558.144731	1.205856	0.209136	7901.782227
7558.145648	0.649369	0.209136	8497.253906
7558.146515	0.095658	0.209136	8580.189453
7558.147586	0.083892	0.209136	8670.037109
7558.148592	0.083844	0.209136	8754.383789
7558.149487	0.083881	0.209136	8829.457031
7558.150451	0.083914	0.209136	8910.349609
7558.151506	0.083954	0.209136	8998.920898
7558.152416	0.083947	0.209136	9075.312500
7558.153279	0.083936	0.209136	9147.749023
7558.154380	0.083987	0.209136	9240.218750
7558.155346	0.083866	0.209136	9321.233398
7559.027170	0.897751	0.333079	414.761169
7559.028062	1.319052	0.333079	1591.355225
7559.028990	1.329573	0.333079	2825.198730
7559.029957	1.301254	0.333079	4083.510986
7559.030848	1.272616	0.333079	5217.411621
7559.031776	1.244154	0.333079	6371.986328
7559.032742	1.215161	0.333079	7545.832031
7559.033656	0.975099	0.333079	8437.072266
7559.034537	0.151051	0.333079	8570.148437
7559.035456	0.083749	0.333079	8647.113281
7559.036417	0.083840	0.333079	8727.683594
7559.037340	0.083815	0.333079	8805.044922
7559.038201	0.083826	0.333079	8877.218750
7559.039167	0.083826	0.333079	8958.194336
7559.040120	0.083870	0.333079	9038.122070
7559.041013	0.083932	0.333079	9113.073242
7559.041921	0.083870	0.333079	9189.226562
7559.042862	0.083855	0.333079	9268.133789
7560.203198	0.849602	0.208793	359.381653
7560.204109	1.314075	0.208793	1556.503662
7560.205138	1.328112	0.208793	2923.130371
7560.206032	1.300928	0.208793	4086.159668
7560.206901	1.273143	0.208793	5192.521484
7560.207894	1.242598	0.208793	6426.420898
7560.208812	1.214132	0.208793	7540.994141
7560.209738	0.963809	0.208793	8433.480469
7560.210619	0.144119	0.208793	8560.449219
7560.211668	0.083719	0.208793	8648.270508
7560.212564	0.083752	0.208793	8723.312500
7560.213440	0.083800	0.208793	8796.721680
7560.214425	0.083782	0.208793	8879.247070
7560.215370	0.083870	0.208793	8958.503906
7560.216283	0.083855	0.208793	9035.063477
7560.217148	0.083848	0.208793	9107.591797
7560.218191	0.083760	0.208793	9194.953125
7560.219073	0.083826	0.208793	9268.887695
7561.092028	0.847284	0.334247	359.248383
7561.092946	1.318433	0.334247	1569.569580
7561.093929	1.328694	0.334247	2875.675781
7561.094822	1.301906	0.334247	4038.277344
7561.095734	1.272773	0.334247	5199.046875
7561.096706	1.242883	0.334247	6407.129395
7561.097635	1.214846	0.334247	7535.721680
7561.098503	1.027991	0.334247	8428.017578
7561.099470	0.150663	0.334247	8573.708984
7561.100396	0.083749	0.334247	8651.260742
7561.101329	0.083899	0.334247	8729.538086
7561.102190	0.083800	0.334247	8801.689453
7561.103138	0.083877	0.334247	8881.205078
7561.104088	0.083914	0.334247	8960.922852
7561.104983	0.083932	0.334247	9036.041992
7561.105895	0.083969	0.334247	9112.621094
7561.106853	0.083939	0.334247	9193.035156
7561.107782	0.083873	0.334247	9270.953125
7562.267579	0.849049	0.212604	359.147766
7562.268547	1.318770	0.212604	1635.716797
7562.269466	1.329408	0.212604	2857.442627
7562.270393	1.301642	0.212604	4064.064453
7562.271257	1.273257	0.212604	5164.158203
7562.272213	1.243612	0.212604	6353.051270
7562.273175	1.215040	0.212604	7521.919922
7562.274068	1.017261	0.212604	8430.333984
7562.274991	0.160825	0.212604	8578.775391
7562.275945	0.083709	0.212604	8658.632812
7562.276867	0.083752	0.212604	8735.852539
7562.277739	0.083826	0.212604	8808.948242
7562.278714	0.083851	0.212604	8890.703125
7562.279654	0.083888	0.212604	8969.557617
7562.280586	0.083848	0.212604	9047.704102
7562.281444	0.083826	0.212604	9119.626953
7562.282408	0.083851	0.212604	9200.459961
7562.283319	0.083859	0.212604	9276.855469
7563.156405	0.851532	0.340652	357.643433
7563.157479	1.324812	0.340652	1780.491455
7563.158418	1.326313	0.340652	3025.899902
7563.159288	1.299214	0.340652	4156.215820
7563.160250	1.268884	0.340652	5376.882812
7563.161282	1.236724	0.340652	6653.181641
7563.162180	1.209701	0.340652	7739.493164
7563.163051	0.858900	0.340652	8487.595703
7563.164118	0.099390	0.340652	8593.644531
7563.165056	0.083771	0.340652	8672.221680
7563.165938	0.083837	0.340652	8746.166016
7563.166883	0.083925	0.340652	8825.474609
7563.167913	0.083881	0.340652	8911.872070
7563.168790	0.083771	0.340652	8985.338867
7563.169648	0.083884	0.340652	9057.311523
7563.170713	0.083939	0.340652	9146.707031
7563.171656	0.083899	0.340652	9225.823242
7563.172528	0.083936	0.340652	9299.014648
7564.332472	0.849972	0.207017	359.538147
7564.333503	1.323827	0.207017	1724.403809
7564.334529	1.325244	0.207017	3084.104492
7564.335421	1.297203	0.207017	4241.209961
7564.336380	1.267009	0.207017	5456.271973
7564.337440	1.234299	0.207017	6764.629395
7564.338366	1.206478	0.207017	7881.828125
7564.339238	0.721095	0.207017	8510.623047
7564.340321	0.090710	0.207017	8608.862305
7564.341319	0.083778	0.207017	8692.472656
7564.342209	0.083873	0.207017	8767.120117
7564.343211	0.083910	0.207017	8851.198242
7564.344249	0.083833	0.207017	8938.216797
7564.345148	0.083862	0.207017	9013.609375
7564.346008	0.083910	0.207017	9085.771484
7564.347095	0.083862	0.207017	9176.929687
7564.348083	0.083844	0.207017	9259.767578
7564.348961	0.083859	0.207017	9333.395508
7565.222858	0.856304	0.343005	371.635803
7565.223720	1.313994	0.343005	1504.298828
7565.224646	1.330404	0.343005	2736.252930
7565.225612	1.302345	0.343005	3994.318359
7565.226545	1.272865	0.343005	5181.901367
7565.227429	1.245062	0.343005	6282.536133
7565.228404	1.216282	0.343005	7468.411133
7565.229361	0.996200	0.343005	8421.774414
7565.230248	0.150769	0.343005	8555.506836
7565.231170	0.083793	0.343005	8632.763672
7565.232099	0.083800	0.343005	8710.614258
7565.233043	0.083829	0.343005	8789.749023
7565.233921	0.083873	0.343005	8863.389648
7565.234829	0.083804	0.343005	8939.483398
7565.235781	0.083800	0.343005	9019.260742
7565.236706	0.083906	0.343005	9096.874023
7565.237578	0.083921	0.343005	9170.052734
7565.238540	0.083771	0.343005	9250.640625
7566.396943	0.897019	0.211182	456.582672
7566.397906	1.327427	0.211182	1734.894653
7566.398839	1.327324	0.211182	2973.288086
7566.399721	1.300144	0.211182	4120.015137
7566.400771	1.267159	0.211182	5450.532715
7566.401679	1.238617	0.211182	6575.196777
7566.402562	1.212041	0.211182	7645.428711
7566.403425	0.874519	0.211182	8400.138672
7566.404499	0.101583	0.211182	8509.239258
7566.405391	0.083738	0.211182	8583.933594
7566.406259	0.083855	0.211182	8656.719727
7566.407264	0.083921	0.211182	8741.060547
7566.408187	0.083826	0.211182	8818.431641
7566.409104	0.083950	0.211182	8895.414062
7566.409964	0.083811	0.211182	8967.491211
7566.410999	0.083932	0.211182	9054.360352
7566.411897	0.083888	0.211182	9129.691406
7566.412809	0.083888	0.211182	9206.197266
7567.285684	0.859750	0.341684	361.094879
7567.286795	1.328137	0.341684	1836.655396
7567.287768	1.323981	0.341684	3124.888672
7567.288654	1.296387	0.341684	4273.487305
7567.289659	1.264706	0.341684	5544.516602
7567.290722	1.232494	0.341684	6854.657715
7567.291614	1.205131	0.341684	7929.634277
7567.292510	0.657755	0.341684	8518.982422
7567.293592	0.088792	0.341684	8615.054687
7567.294551	0.083778	0.341684	8695.397461
7567.295414	0.083756	0.341684	8767.678711
7567.296445	0.083914	0.341684	8854.193359
7567.297468	0.083884	0.341684	8940.006836
7567.298356	0.083873	0.341684	9014.486328
7567.299277	0.083906	0.341684	9091.763672
7567.300350	0.083862	0.341684	9181.748047
7567.301287	0.083789	0.341684	9260.258789
7567.302145	0.083895	0.341684	9332.241211
7568.460741	0.856036	0.204918	367.239594
7568.461662	1.314745	0.204918	1578.119629
7568.462622	1.329957	0.204918	2854.878418
7568.463554	1.301935	0.204918	4068.281738
7568.464419	1.273561	0.204918	5169.911621
7568.465341	1.244231	0.204918	6317.092773
7568.466311	1.215381	0.204918	7496.012207
7568.467240	1.001261	0.204918	8426.183594
7568.468117	0.157991	0.204918	8564.741211
7568.469103	0.083701	0.204918	8647.270508
7568.470025	0.083752	0.204918	8724.490234
7568.470888	0.083789	0.204918	8796.799805
7568.471852	0.083833	0.204918	8877.615234
7568.472786	0.083888	0.204918	8955.966797
7568.473720	0.083818	0.204918	9034.252930
7568.474580	0.083745	0.204918	9106.273437
7568.475535	0.083804	0.204918	9186.305664
7568.476478	0.083862	0.204918	9265.387695
7569.349055	0.852341	0.337236	362.245087
7569.350014	1.315045	0.337236	1623.373413
7569.350988	1.327983	0.337236	2916.829102
7569.351919	1.299910	0.337236	4127.044922
7569.352789	1.271990	0.337236	5233.675781
7569.353858	1.239441	0.337236	6558.638184
7569.354756	1.212125	0.337236	7647.126953
7569.355637	0.935995	0.337236	8471.738281
7569.356516	0.137937	0.337236	8592.985352
7569.357545	0.083698	0.337236	8679.110352
7569.358425	0.083793	0.337236	8752.847656
7569.359305	0.083866	0.337236	8826.649414
7569.360295	0.083936	0.337236	8909.746094
7569.361216	0.083811	0.337236	8986.936523
7569.362140	0.083851	0.337236	9064.415039
7569.363003	0.083859	0.337236	9136.785156
7569.364042	0.083884	0.337236	9223.941406
7569.364930	0.083804	0.337236	9298.359375
7570.527693	0.867748	0.199105	375.734802
7570.528568	1.315532	0.199105	1526.825684
7570.529624	1.327863	0.199105	2929.048340
7570.530640	1.296606	0.199105	4246.400391
7570.531535	1.268112	0.199105	5381.360352
7570.532512	1.238397	0.199105	6591.274414
7570.533587	1.206222	0.199105	7887.962891
7570.534505	0.661641	0.199105	8495.348633
7570.535370	0.096196	0.199105	8578.558594
7570.536465	0.083870	0.199105	8670.395508
7570.537431	0.083760	0.199105	8751.307617
7570.538313	0.083862	0.199105	8825.274414
7570.539330	0.083877	0.199105	8910.577148
7570.540384	0.083848	0.199105	8998.952148
7570.541275	0.083910	0.199105	9073.715820
7570.542157	0.083888	0.199105	9147.705078
7570.543256	0.083895	0.199105	9239.906250
7570.544209	0.083793	0.199105	9319.760742
7571.412418	0.860837	0.345357	368.438416
7571.413293	1.314833	0.345357	1518.916992
7571.414276	1.329565	0.345357	2825.879883
7571.415214	1.301697	0.345357	4046.871582
7571.416098	1.273250	0.345357	5172.424316
7571.417005	1.245681	0.345357	6302.256836
7571.417951	1.216501	0.345357	7453.067383
7571.418889	1.019062	0.345357	8408.948242
7571.419772	0.168311	0.345357	8557.566406
7571.420705	0.083804	0.345357	8635.754883
7571.421642	0.083844	0.345357	8714.316406
7571.422571	0.083826	0.345357	8792.190430
7571.423444	0.083811	0.345357	8865.357422
7571.424384	0.083796	0.345357	8944.125977
7571.425321	0.083822	0.345357	9022.666992
7571.426205	0.083840	0.345357	9096.782227
7571.427202	0.083767	0.345357	9180.297852
7571.428143	0.083837	0.345357	9259.188477
7572.594624	0.857106	0.194457	369.412537
7572.595487	1.313771	0.194457	1503.196777
7572.596587	1.327537	0.194457	2963.487305
7572.597522	1.298676	0.194457	4177.749023
7572.598405	1.270433	0.194457	5299.541504
7572.599389	1.240693	0.194457	6520.383789
7572.600411	1.209562	0.194457	7756.555664
7572.601296	0.837041	0.194457	8497.336914
7572.602153	0.116576	0.194457	8597.242187
7572.603236	0.083807	0.194457	8688.005859
7572.604153	0.083855	0.194457	8764.900391
7572.605018	0.083866	0.194457	8837.444336
7572.605977	0.083855	0.194457	8917.861328
7572.607013	0.083840	0.194457	9004.719727
7572.607908	0.083844	0.194457	9079.759766
7572.608769	0.083932	0.194457	9152.025391
7572.609821	0.083965	0.194457	9240.356445
7572.610755	0.083851	0.194457	9318.673828
7573.474235	0.848925	0.341120	359.095093
7573.475180	1.317275	0.341120	1603.920410
7573.476110	1.329642	0.341120	2840.487793
7573.477013	1.302257	0.341120	4016.426025
7573.477895	1.273704	0.341120	5139.832520
7573.478859	1.244216	0.341120	6339.256836
7573.479815	1.215557	0.341120	7501.329102
7573.480714	1.029617	0.341120	8426.954102
7573.481650	0.168186	0.341120	8584.375977
7573.482729	0.083870	0.341120	8674.871094
7573.483722	0.083892	0.341120	8758.175781
7573.484616	0.083840	0.341120	8833.128906
7573.485597	0.083987	0.341120	8915.519531
7573.486650	0.083811	0.341120	9003.772461
7573.487559	0.083925	0.341120	9080.059570
7573.488423	0.083928	0.341120	9152.573242
7573.489509	0.083983	0.341120	9243.779297
7573.490505	0.083829	0.341120	9327.273437
7574.662613	0.880715	0.186122	390.156891
7574.663489	1.316235	0.186122	1543.179077
7574.664426	1.330419	0.186122	2789.781250
7574.665386	1.302253	0.186122	4039.944580
7574.666294	1.272946	0.186122	5195.779297
7574.667175	1.245300	0.186122	6292.888672
7574.668129	1.216853	0.186122	7453.766602
7574.669096	0.999833	0.186122	8420.604492
7574.669991	0.152300	0.186122	8556.913086
7574.670889	0.083844	0.186122	8632.205078
7574.671830	0.083804	0.186122	8711.064453
7574.672769	0.083873	0.186122	8789.821289
7574.673630	0.083848	0.186122	8862.013672
7574.674597	0.083906	0.186122	8943.151367
7574.675550	0.083774	0.186122	9022.988281
7574.676424	0.083877	0.186122	9096.296875
7574.677308	0.083822	0.186122	9170.395508
7574.678261	0.083807	0.186122	9250.263672
7575.537640	0.878613	0.348991	409.433807
7575.538523	1.318096	0.348991	1573.312378
7575.539476	1.329305	0.348991	2840.140381
7575.540455	1.300151	0.348991	4112.988281
7575.541383	1.270627	0.348991	5292.130371
7575.542258	1.243066	0.348991	6379.813477
7575.543301	1.212536	0.348991	7644.488281
7575.544185	0.922148	0.348991	8459.667969
7575.545060	0.133147	0.348991	8576.171875
7575.545991	0.083811	0.348991	8654.200195
7575.546994	0.083844	0.348991	8738.295898
7575.547902	0.083870	0.348991	8814.449219
7575.548779	0.083848	0.348991	8887.983398
7575.549880	0.083910	0.348991	8980.368164
7575.550775	0.083844	0.348991	9055.408203
7575.551652	0.083815	0.348991	9128.914062
7575.552508	0.083840	0.348991	9200.681641
7575.553557	0.083829	0.348991	9288.618164
7576.729610	0.914813	0.181074	459.236267
7576.730515	1.323651	0.181074	1657.140381
7576.731388	1.329013	0.181074	2817.368164
7576.732499	1.296401	0.181074	4257.669922
7576.733495	1.264673	0.181074	5517.284180
7576.734385	1.237515	0.181074	6618.672363
7576.735382	1.207877	0.181074	7822.925781
7576.736435	0.590306	0.181074	8444.518555
7576.737327	0.090341	0.181074	8525.102539
7576.738211	0.083763	0.181074	8599.149414
7576.739316	0.083950	0.181074	8691.914062
7576.740264	0.083859	0.181074	8771.412109
7576.741131	0.083881	0.181074	8844.136719
7576.742174	0.083796	0.181074	8931.536133
7576.743197	0.083756	0.181074	9017.218750
7576.744081	0.083833	0.181074	9091.327148
7576.745006	0.083932	0.181074	9168.963867
7576.746063	0.083848	0.181074	9257.590820
7577.597921	0.860134	0.353632	393.941498
7577.598813	1.318224	0.353632	1569.797241
7577.599732	1.330459	0.353632	2792.489014
7577.600658	1.302301	0.353632	3998.419922
7577.601614	1.272111	0.353632	5214.557617
7577.602495	1.244736	0.353632	6311.170410
7577.603409	1.216736	0.353632	7423.267090
7577.604362	1.005048	0.353632	8381.077148
7577.605296	0.152117	0.353632	8523.154297
7577.606168	0.083730	0.353632	8596.166992
7577.607127	0.083789	0.353632	8676.520508
7577.608045	0.083826	0.353632	8753.472656
7577.608975	0.083833	0.353632	8831.437500
7577.609836	0.083837	0.353632	8903.621094
7577.610801	0.083793	0.353632	8984.481445
7577.611744	0.083851	0.353632	9063.553711
7577.612625	0.083837	0.353632	9137.414062
7577.613535	0.083840	0.353632	9213.708984
7578.799129	0.897037	0.173131	463.768311
7578.800098	1.327211	0.173131	1749.835449
7578.801030	1.327079	0.173131	2986.672852
7578.801905	1.299760	0.173131	4123.962402
7578.802948	1.267478	0.173131	5445.941895
7578.803824	1.239467	0.173131	6531.714844
7578.804705	1.213202	0.173131	7600.545898
7578.805620	0.876954	0.173131	8402.958984
7578.806625	0.107703	0.173131	8511.200195
7578.807554	0.083741	0.173131	8588.996094
7578.808428	0.083884	0.173131	8662.310547
7578.809421	0.083844	0.173131	8745.567383
7578.810347	0.083888	0.173131	8823.248047
7578.811274	0.083899	0.173131	8901.022461
7578.812139	0.083947	0.173131	8973.635742
7578.813174	0.083851	0.173131	9060.421875
7578.814053	0.083818	0.173131	9134.098633
7578.814919	0.083862	0.173131	9206.723633
7579.656137	0.862028	0.360451	368.947815
7579.657024	1.314283	0.360451	1534.717285
7579.657984	1.329426	0.360451	2810.966309
7579.658913	1.301843	0.360451	4020.378662
7579.659846	1.272583	0.360451	5207.698730
7579.660709	1.244729	0.360451	6281.899902
7579.661682	1.215879	0.360451	7464.950195
7579.662621	1.007399	0.360451	8410.897461
7579.663504	0.159811	0.360451	8552.010742
7579.664464	0.083778	0.360451	8632.437500
7579.665419	0.083815	0.360451	8712.480469
7579.666308	0.083855	0.360451	8787.027344
7579.667223	0.083877	0.360451	8863.774414
7579.668164	0.083950	0.360451	8942.771484
7579.669111	0.083844	0.360451	9022.171875
7579.669988	0.083925	0.360451	9095.773437
7579.670907	0.083892	0.360451	9172.870117
7579.671854	0.083877	0.360451	9252.301758
