time (s)	coil I (A)	last det (V)	int current (uC)
9343.676918	0.889556	0.306601	402.079132
9343.677800	1.318572	0.306601	1565.059448
9343.678743	1.329697	0.306601	2818.963867
9343.679824	1.298082	0.306601	4222.190918
9343.680698	1.269437	0.306601	5331.679199
9343.681566	1.242455	0.306601	6410.129883
9343.682591	1.211854	0.306601	7652.280273
9343.683550	1.184308	0.306601	8788.031250
9343.684430	1.159962	0.306601	9808.797852
9343.685352	1.135565	0.306601	10855.789062
9343.686435	1.114069	0.306601	12062.325195
9343.687331	0.965409	0.306601	12927.332031
9343.688202	0.171661	0.306601	13076.848633
9343.689249	0.083983	0.306601	13164.779297
9343.690209	0.083826	0.306601	13245.251953
9343.691081	0.083932	0.306601	13318.440430
9343.691975	0.083859	0.306601	13393.410156
9343.693062	0.083976	0.306601	13484.691406
9343.693939	0.083939	0.306601	13558.305664
9343.694795	0.083892	0.306601	13630.117187
9343.695824	0.083969	0.306601	13716.520508
9343.696810	0.083906	0.306601	13799.251953
9344.491994	0.878921	0.328092	391.998688
9344.492885	1.317971	0.328092	1566.311035
9344.493806	1.330547	0.328092	2791.744629
9344.494781	1.301872	0.328092	4061.070312
9344.495710	1.272191	0.328092	5242.936035
9344.496578	1.245004	0.328092	6323.599121
9344.497553	1.216479	0.328092	7509.666504
9344.498488	1.188636	0.328092	8621.041016
9344.499404	1.163375	0.328092	9686.692383
9344.500270	1.139264	0.328092	10673.294922
9344.501230	1.119401	0.328092	11747.919922
9344.502204	1.070471	0.328092	12790.558594
9344.503105	0.271846	0.328092	13035.491211
9344.504024	0.085082	0.328092	13113.681641
9344.504982	0.083925	0.328092	13194.081055
9344.505866	0.083943	0.328092	13268.286133
9344.506756	0.083870	0.328092	13342.929687
9344.507704	0.083899	0.328092	13422.465820
9344.508657	0.084012	0.328092	13502.529297
9344.509540	0.083990	0.328092	13576.693359
9344.510469	0.083972	0.328092	13654.703125
9344.511435	0.083998	0.328092	13735.844727
9345.740249	0.874028	0.298222	383.698425
9345.741123	1.315452	0.298222	1533.403076
9345.741995	1.332363	0.298222	2695.223877
9345.742994	1.304322	0.298222	3998.242187
9345.743904	1.273971	0.298222	5157.555664
9345.744795	1.246472	0.298222	6268.162109
9345.745735	1.217988	0.298222	7413.071289
9345.746724	1.189314	0.298222	8589.302734
9345.747634	1.164031	0.298222	9648.570312
9345.748527	1.140073	0.298222	10666.655273
9345.749461	1.120444	0.298222	11713.150391
9345.750412	1.089668	0.298222	12749.424805
9345.751344	0.300110	0.298222	13029.126953
9345.752207	0.085426	0.298222	13102.849609
9345.753239	0.083833	0.298222	13189.365234
9345.754124	0.083837	0.298222	13263.560547
9345.755029	0.083939	0.298222	13339.525391
9345.755910	0.083899	0.298222	13413.440430
9345.756897	0.083914	0.298222	13496.262695
9345.757820	0.083954	0.298222	13573.751953
9345.758696	0.084009	0.298222	13647.343750
9345.759711	0.083932	0.298222	13732.534180
9346.557370	0.845343	0.330191	357.580109
9346.558359	1.319322	0.330191	1662.390015
9346.559415	1.325588	0.330191	3062.211426
9346.560308	1.297401	0.330191	4220.790527
9346.561197	1.268232	0.330191	5348.249023
9346.562312	1.234852	0.330191	6725.109375
9346.563276	1.206303	0.330191	7887.984863
9346.564149	1.181235	0.330191	8919.203125
9346.565177	1.153173	0.330191	10104.664062
9346.566226	1.127600	0.330191	11287.516602
9346.567118	1.108791	0.330191	12276.558594
9346.568055	0.735311	0.330191	12965.544922
9346.569125	0.094058	0.330191	13066.186523
9346.570053	0.083840	0.330191	13143.990234
9346.570912	0.083928	0.330191	13216.084961
9346.571967	0.084012	0.330191	13304.717773
9346.572971	0.083840	0.330191	13388.893555
9346.573852	0.083925	0.330191	13462.831055
9346.574820	0.083979	0.330191	13544.123047
9346.575873	0.083969	0.330191	13632.541992
9346.576793	0.083906	0.330191	13709.735352
9346.577653	0.083862	0.330191	13781.857422
9347.804614	0.875933	0.312080	379.278839
9347.805545	1.320114	0.312080	1608.304565
9347.806407	1.330792	0.312080	2755.447510
9347.807390	1.302715	0.312080	4036.016357
9347.808346	1.272466	0.312080	5252.493652
9347.809232	1.244590	0.312080	6355.200195
9347.810163	1.217150	0.312080	7488.366211
9347.811101	1.189200	0.312080	8603.835937
9347.812009	1.163723	0.312080	9660.496094
9347.812878	1.139978	0.312080	10651.136719
9347.813848	1.119968	0.312080	11737.505859
9347.814809	1.084900	0.312080	12780.094727
9347.815709	0.302479	0.312080	13052.326172
9347.816625	0.085481	0.312080	13130.626953
9347.817598	0.083939	0.312080	13212.299805
9347.818519	0.083914	0.312080	13289.583984
9347.819381	0.083925	0.312080	13361.926758
9347.820320	0.083862	0.312080	13440.673828
9347.821269	0.083936	0.312080	13520.329102
9347.822170	0.083917	0.312080	13595.938477
9347.823047	0.083917	0.312080	13669.534180
9347.824018	0.083848	0.312080	13750.950195
9348.621895	0.949977	0.329768	539.586792
9348.622896	1.331323	0.329768	1872.241333
9348.623781	1.325735	0.329768	3045.516602
9348.624642	1.298046	0.329768	4163.133789
9348.625731	1.264915	0.329768	5540.625977
9348.626646	1.236328	0.329768	6671.866211
9348.627516	1.210199	0.329768	7724.739258
9348.628515	1.181957	0.329768	8905.513672
9348.629523	1.153528	0.329768	10068.269531
9348.630420	1.130892	0.329768	11082.679687
9348.631289	1.113065	0.329768	12049.933594
9348.632391	0.783142	0.329768	12912.956055
9348.633316	0.107937	0.329768	13012.797852
9348.634191	0.083822	0.329768	13086.142578
9348.635168	0.083965	0.329768	13168.175781
9348.636171	0.083979	0.329768	13252.407227
9348.637060	0.083925	0.329768	13327.016602
9348.637921	0.083954	0.329768	13399.300781
9348.638996	0.083983	0.329768	13489.583008
9348.639909	0.083969	0.329768	13566.246094
9348.640786	0.083994	0.329768	13639.909180
9348.641769	0.084042	0.329768	13722.522461
9349.868112	0.976952	0.302291	556.862610
9349.869158	1.332118	0.302291	1950.258057
9349.870057	1.324365	0.302291	3140.862305
9349.870974	1.295002	0.302291	4328.379395
9349.872057	1.261219	0.302291	5694.280273
9349.873003	1.232311	0.302291	6860.046387
9349.873872	1.206116	0.302291	7908.161133
9349.874926	1.176259	0.302291	9147.937500
9349.875949	1.148580	0.302291	10322.935547
9349.876846	1.127054	0.302291	11333.903320
9349.877809	1.106957	0.302291	12399.902344
9349.878863	0.539941	0.302291	12969.000977
9349.879790	0.088821	0.302291	13051.337891
9349.880653	0.083936	0.302291	13123.774414
9349.881717	0.084067	0.302291	13213.221680
9349.882716	0.083969	0.302291	13297.106445
9349.883598	0.083994	0.302291	13371.189453
9349.884594	0.084053	0.302291	13454.906250
9349.885644	0.084100	0.302291	13543.211914
9349.886546	0.083932	0.302291	13618.918945
9349.887404	0.084005	0.302291	13690.995117
9349.888503	0.084016	0.302291	13783.329102
9350.686188	0.888263	0.333861	421.036621
9350.687129	1.322142	0.333861	1665.172607
9350.688058	1.328588	0.333861	2899.430664
9350.688926	1.301997	0.333861	4029.563965
9350.689905	1.271722	0.333861	5274.580078
9350.690838	1.242052	0.333861	6433.414551
9350.691743	1.214550	0.333861	7532.582031
9350.692621	1.188574	0.333861	8576.150391
9350.693613	1.161632	0.333861	9728.489258
9350.694567	1.136389	0.333861	10812.604492
9350.695458	1.118654	0.333861	11809.325195
9350.696376	1.075217	0.333861	12796.375000
9350.697325	0.247255	0.333861	13031.019531
9350.698233	0.084415	0.333861	13107.668945
9350.699092	0.083910	0.333861	13179.748047
9350.700062	0.083914	0.333861	13261.144531
9350.701014	0.083873	0.333861	13340.992187
9350.701890	0.083873	0.333861	13414.464844
9350.702791	0.083910	0.333861	13490.067383
9350.703749	0.083895	0.333861	13570.439453
9350.704676	0.083866	0.333861	13648.183594
9350.705556	0.083928	0.333861	13722.040039
9351.931316	0.853960	0.313509	356.955261
9351.932345	1.324406	0.313509	1719.768555
9351.933246	1.328511	0.313509	2916.756592
9351.934125	1.301851	0.313509	4061.083496
9351.935069	1.271979	0.313509	5261.831543
9351.936056	1.241341	0.313509	6487.035645
9351.936980	1.213623	0.313509	7608.423340
9351.937849	1.188054	0.313509	8640.842773
9351.938899	1.159922	0.313509	9858.760742
9351.939791	1.135803	0.313509	10871.897461
9351.940666	1.118342	0.313509	11850.447266
9351.941554	1.027734	0.313509	12763.075195
9351.942626	0.187976	0.313509	12964.585937
9351.943503	0.083939	0.313509	13038.200195
9351.944378	0.083892	0.313509	13111.605469
9351.945368	0.084009	0.313509	13194.774414
9351.946303	0.083906	0.313509	13273.226562
9351.947224	0.083906	0.313509	13350.503906
9351.948088	0.083884	0.313509	13422.979492
9351.949127	0.083925	0.313509	13510.176758
9351.950011	0.083903	0.313509	13584.346680
9351.950883	0.083943	0.313509	13657.544922
9352.752591	0.861874	0.340286	382.671967
9352.753454	1.313983	0.340286	1516.639404
9352.754482	1.328408	0.340286	2882.242920
9352.755524	1.297368	0.340286	4234.100586
9352.756415	1.268518	0.340286	5364.350098
9352.757308	1.240049	0.340286	6471.713867
9352.758403	1.208375	0.340286	7794.884766
9352.759352	1.181155	0.340286	8915.800781
9352.760212	1.157084	0.340286	9910.892578
9352.761236	1.131101	0.340286	11069.140625
9352.762296	1.109524	0.340286	12245.236328
9352.763177	0.830925	0.340286	12977.281250
9352.764128	0.121241	0.340286	13092.582031
9352.765184	0.083892	0.340286	13181.171875
9352.766116	0.083899	0.340286	13259.365234
9352.766980	0.083917	0.340286	13331.870117
9352.768019	0.083990	0.340286	13419.135742
9352.769034	0.083928	0.340286	13504.323242
9352.769924	0.083936	0.340286	13579.025391
9352.770895	0.084042	0.340286	13660.629883
9352.771958	0.083990	0.340286	13749.912109
9352.772875	0.083903	0.340286	13826.850586
9353.993702	0.874329	0.301058	403.065491
9353.994590	1.318326	0.301058	1573.739502
9353.995459	1.331140	0.301058	2730.500244
9353.996427	1.303532	0.301058	3992.318848
9353.997352	1.272821	0.301058	5169.678223
9353.998288	1.244238	0.301058	6334.285156
9353.999154	1.217560	0.301058	7388.691895
9354.000136	1.189717	0.301058	8556.994141
9354.001094	1.163470	0.301058	9671.598633
9354.001978	1.139403	0.301058	10678.831055
9354.002890	1.120250	0.301058	11700.499023
9354.003860	1.082212	0.301058	12750.244141
9354.004800	0.278906	0.301058	13012.416016
9354.005674	0.084902	0.301058	13086.621094
9354.006609	0.083837	0.301058	13165.008789
9354.007566	0.083910	0.301058	13245.310547
9354.008464	0.083892	0.301058	13320.645508
9354.009532	0.083921	0.301058	13410.273437
9354.010486	0.083807	0.301058	13490.225586
9354.011409	0.083829	0.301058	13567.599609
9354.012268	0.083829	0.301058	13639.609375
9354.013239	0.083925	0.301058	13721.100586
9354.815942	0.861010	0.346344	375.400146
9354.816816	1.313917	0.346344	1523.763794
9354.817783	1.329628	0.346344	2809.513672
9354.818808	1.299371	0.346344	4141.369141
9354.819689	1.271177	0.346344	5261.275879
9354.820550	1.243770	0.346344	6332.161621
9354.821618	1.212451	0.346344	7627.059570
9354.822563	1.185220	0.346344	8747.091797
9354.823433	1.161057	0.346344	9757.211914
9354.824389	1.135931	0.346344	10843.162109
9354.825427	1.114669	0.346344	12000.188477
9354.826329	0.994922	0.346344	12897.608398
9354.827201	0.190920	0.346344	13064.090820
9354.828257	0.083979	0.346344	13152.773437
9354.829207	0.083796	0.346344	13232.379883
9354.830084	0.083936	0.346344	13305.991211
9354.831020	0.083990	0.346344	13384.606445
9354.832057	0.083906	0.346344	13471.617187
9354.832944	0.083947	0.346344	13546.078125
9354.833806	0.083910	0.346344	13618.408203
9354.834872	0.084005	0.346344	13707.958008
9354.835816	0.083881	0.346344	13787.141602
9356.058128	0.926144	0.312317	466.776489
9356.059065	1.325548	0.312317	1708.815186
9356.059935	1.328903	0.312317	2864.960449
9356.061014	1.296350	0.312317	4263.722168
9356.062033	1.263977	0.312317	5551.714844
9356.062933	1.236336	0.312317	6664.416992
9356.063894	1.207782	0.312317	7825.095703
9356.064945	1.177936	0.312317	9063.106445
9356.065869	1.152308	0.312317	10127.839844
9356.066734	1.130208	0.312317	11105.469727
9356.067825	1.108132	0.312317	12314.442383
9356.068831	0.640547	0.312317	12958.833008
9356.069707	0.096306	0.312317	13043.197266
9356.070717	0.083910	0.312317	13127.946289
9356.071750	0.083979	0.312317	13214.697266
9356.072640	0.083884	0.312317	13289.354492
9356.073497	0.083851	0.312317	13361.214844
9356.074591	0.084067	0.312317	13453.184570
9356.075558	0.083866	0.312317	13534.283203
9356.076430	0.084009	0.312317	13607.539062
9356.077436	0.083979	0.312317	13692.022461
9356.078502	0.083910	0.312317	13781.470703
9356.880314	0.844995	0.341611	354.897949
9356.881252	1.313280	0.341611	1586.754517
9356.882240	1.328405	0.341611	2899.218262
9356.883161	1.300056	0.341611	4096.570312
9356.884048	1.271862	0.341611	5224.711426
9356.885066	1.241349	0.341611	6488.404297
9356.885962	1.213861	0.341611	7576.023926
9356.886838	1.188212	0.341611	8616.897461
9356.887731	1.162387	0.341611	9654.908203
9356.888767	1.135466	0.341611	10831.250977
9356.889668	1.117789	0.341611	11838.378906
9356.890547	1.085339	0.341611	12792.392578
9356.891555	0.248643	0.341611	13043.024414
9356.892481	0.084064	0.341611	13120.867187
9356.893405	0.083895	0.341611	13198.386719
9356.894273	0.083906	0.341611	13271.217773
9356.895310	0.083884	0.341611	13358.206055
9356.896205	0.083888	0.341611	13433.286133
9356.897079	0.084034	0.341611	13506.732422
9356.898081	0.084020	0.341611	13590.919922
9356.899014	0.083910	0.341611	13669.208008
9356.899921	0.083983	0.341611	13745.380859
9358.121494	0.921343	0.308100	465.278107
9358.122389	1.323043	0.308100	1649.401733
9358.123267	1.329873	0.308100	2817.030273
9358.124265	1.300283	0.308100	4114.712891
9358.125271	1.267562	0.308100	5389.880371
9358.126168	1.240137	0.308100	6502.283203
9358.127034	1.213129	0.308100	7552.852539
9358.128140	1.182484	0.308100	8860.679687
9358.129070	1.156556	0.308100	9936.277344
9358.129949	1.133496	0.308100	10932.620117
9358.130960	1.113699	0.308100	12058.569336
9358.131960	0.867631	0.308100	12926.200195
9358.132848	0.131971	0.308100	13043.390625
9358.133705	0.083829	0.308100	13115.232422
9358.134814	0.084031	0.308100	13208.422852
9358.135710	0.083822	0.308100	13283.527344
9358.136576	0.083866	0.308100	13356.155273
9358.137557	0.083947	0.308100	13438.506836
9358.138554	0.083833	0.308100	13522.087891
9358.139439	0.083914	0.308100	13596.351562
9358.140305	0.083884	0.308100	13668.995117
9358.141384	0.083917	0.308100	13759.541992
9358.945770	0.874178	0.352576	404.744629
9358.946663	1.318154	0.352576	1581.856445
9358.947537	1.330620	0.352576	2744.818359
9358.948454	1.304615	0.352576	3941.150879
9358.949395	1.273770	0.352576	5139.768066
9358.950335	1.244601	0.352576	6309.692871
9358.951216	1.217933	0.352576	7382.692383
9358.952147	1.190878	0.352576	8491.399414
9358.953109	1.164364	0.352576	9611.517578
9358.954019	1.139630	0.352576	10648.581055
9358.954903	1.120898	0.352576	11639.455078
9358.955853	1.097120	0.352576	12681.719727
9358.956809	0.343942	0.352576	13010.528320
9358.957698	0.085463	0.352576	13086.504883
9358.958612	0.083892	0.352576	13163.181641
9358.959535	0.083910	0.352576	13240.630859
9358.960487	0.083906	0.352576	13320.509766
9358.961377	0.083866	0.352576	13395.150391
9358.962298	0.083888	0.352576	13472.411133
9358.963250	0.083873	0.352576	13552.258789
9358.964163	0.083892	0.352576	13628.851562
9358.965028	0.083950	0.352576	13701.468750
9360.186817	0.855187	0.318098	366.019928
9360.187679	1.313214	0.318098	1498.010376
9360.188676	1.329181	0.318098	2823.203613
9360.189602	1.301770	0.318098	4028.642578
9360.190491	1.273455	0.318098	5160.743652
9360.191441	1.244868	0.318098	6343.368164
9360.192383	1.215780	0.318098	7488.632812
9360.193293	1.189281	0.318098	8570.878906
9360.194161	1.163888	0.318098	9581.133789
9360.195204	1.137396	0.318098	10767.437500
9360.196132	1.118921	0.318098	11805.795898
9360.197012	1.092363	0.318098	12767.075195
9360.197885	0.326162	0.318098	13051.814453
9360.198859	0.084855	0.318098	13134.462891
9360.199780	0.083987	0.318098	13211.814453
9360.200657	0.083917	0.318098	13285.410156
9360.201694	0.083899	0.318098	13372.413086
9360.202585	0.083903	0.318098	13447.169922
9360.203504	0.083954	0.318098	13524.323242
9360.204367	0.083950	0.318098	13596.772461
9360.205367	0.083873	0.318098	13680.645508
9360.206292	0.084012	0.318098	13758.357422
9361.009081	0.846416	0.348798	355.494751
9361.010034	1.314240	0.348798	1607.964966
9361.011094	1.325819	0.348798	3013.333008
9361.012026	1.296892	0.348798	4222.036133
9361.012896	1.268419	0.348798	5325.560547
9361.013989	1.235500	0.348798	6675.962402
9361.014982	1.205720	0.348798	7873.242676
9361.015883	1.180034	0.348798	8936.453125
9361.016888	1.152956	0.348798	10095.174805
9361.017940	1.127560	0.348798	11281.367187
9361.018837	1.108125	0.348798	12275.355469
9361.019713	0.762905	0.348798	12943.660156
9361.020798	0.097310	0.348798	13049.241211
9361.021766	0.083760	0.348798	13130.320312
9361.022625	0.083851	0.348798	13202.348633
9361.023702	0.083983	0.348798	13292.798828
9361.024739	0.083851	0.348798	13379.752930
9361.025620	0.083954	0.348798	13453.715820
9361.026552	0.084016	0.348798	13532.018555
9361.027617	0.083939	0.348798	13621.414062
9361.028552	0.083881	0.348798	13699.842773
9361.029419	0.083855	0.348798	13772.544922
9362.251199	0.849148	0.317034	361.737000
9362.252134	1.318279	0.317034	1594.327881
9362.253105	1.328394	0.317034	2884.197998
9362.254031	1.300789	0.317034	4088.728027
9362.254896	1.272250	0.317034	5189.224121
9362.255852	1.242946	0.317034	6377.479980
9362.256800	1.214707	0.317034	7529.022461
9362.257686	1.188647	0.317034	8582.164062
9362.258660	1.162383	0.317034	9714.325195
9362.259591	1.137070	0.317034	10772.937500
9362.260512	1.118752	0.317034	11803.308594
9362.261388	1.081106	0.317034	12750.357422
9362.262375	0.260566	0.317034	13007.536133
9362.263329	0.084393	0.317034	13088.046875
9362.264219	0.083873	0.317034	13162.694336
9362.265151	0.083837	0.317034	13240.830078
9362.266089	0.083855	0.317034	13319.486328
9362.267015	0.083822	0.317034	13397.105469
9362.267893	0.083855	0.317034	13470.730469
9362.268811	0.083914	0.317034	13547.762695
9362.269767	0.083881	0.317034	13627.952148
9362.270700	0.083862	0.317034	13706.195312
9363.073558	0.921449	0.354711	462.567413
9363.074599	1.328467	0.354711	1845.501343
9363.075478	1.325790	0.354711	3010.870605
9363.076437	1.296160	0.354711	4253.887695
9363.077504	1.262402	0.354711	5600.871094
9363.078430	1.233765	0.354711	6743.336914
9363.079304	1.207277	0.354711	7798.496582
9363.080349	1.177815	0.354711	9029.313477
9363.081372	1.149972	0.354711	10205.734375
9363.082269	1.128179	0.354711	11217.710937
9363.083241	1.108055	0.354711	12294.741211
9363.084308	0.597971	0.354711	12932.776367
9363.085225	0.091201	0.354711	13016.408203
9363.086090	0.083892	0.354711	13088.974609
9363.087183	0.084005	0.354711	13180.791992
9363.088178	0.083939	0.354711	13264.311523
9363.089072	0.083855	0.354711	13339.278320
9363.090058	0.084005	0.354711	13422.107422
9363.091098	0.083859	0.354711	13509.320312
9363.091987	0.083892	0.354711	13583.900391
9363.092850	0.083939	0.354711	13656.339844
9363.093926	0.083987	0.354711	13746.709961
9364.315633	0.895133	0.318545	428.768738
9364.316609	1.323395	0.318545	1720.402100
9364.317543	1.327148	0.318545	2959.958740
9364.318410	1.300195	0.318545	4087.228027
9364.319387	1.269987	0.318545	5328.004883
9364.320288	1.240814	0.318545	6445.978516
9364.321188	1.214319	0.318545	7538.865234
9364.322204	1.184297	0.318545	8742.111328
9364.323166	1.157900	0.318545	9856.011719
9364.324101	1.133734	0.318545	10916.052734
9364.324968	1.116544	0.318545	11884.096680
9364.325935	1.006813	0.318545	12857.684570
9364.326904	0.179579	0.318545	13031.696289
9364.327793	0.083873	0.318545	13106.259766
9364.328705	0.083844	0.318545	13182.725586
9364.329665	0.083884	0.318545	13263.254883
9364.330594	0.083892	0.318545	13341.190430
9364.331453	0.083906	0.318545	13413.265625
9364.332359	0.083910	0.318545	13489.288086
9364.333308	0.083903	0.318545	13568.912109
9364.334231	0.083881	0.318545	13646.333984
9364.335111	0.083921	0.318545	13720.184570
9365.136982	0.978116	0.353047	568.285645
9365.137995	1.331528	0.353047	1917.123779
9365.138887	1.324263	0.353047	3098.366211
9365.139753	1.296189	0.353047	4220.865723
9365.140860	1.263018	0.353047	5619.026367
9365.141762	1.234651	0.353047	6732.681641
9365.142625	1.208624	0.353047	7775.724609
9365.143629	1.179851	0.353047	8960.294922
9365.144637	1.152030	0.353047	10121.541016
9365.145539	1.129647	0.353047	11140.482422
9365.146405	1.111578	0.353047	12103.109375
9365.147513	0.741855	0.353047	12925.084961
9365.148428	0.102477	0.353047	13018.851562
9365.149294	0.083800	0.353047	13091.422852
9365.150358	0.083873	0.353047	13180.664062
9365.151340	0.083910	0.353047	13263.063477
9365.152213	0.083866	0.353047	13336.278320
9365.153071	0.083921	0.353047	13408.282227
9365.154169	0.083903	0.353047	13500.407227
9365.155057	0.083840	0.353047	13574.857422
9365.155925	0.083910	0.353047	13647.691406
9365.156944	0.083921	0.353047	13733.207031
9366.380051	0.919017	0.322058	463.184753
9366.381051	1.328401	0.322058	1791.585693
9366.381952	1.326482	0.322058	2986.746094
9366.382936	1.296324	0.322058	4262.329102
9366.383994	1.262743	0.322058	5598.311035
9366.384911	1.234277	0.322058	6730.143555
9366.385779	1.207430	0.322058	7778.193359
9366.386874	1.177170	0.322058	9067.195312
9366.387848	1.150324	0.322058	10187.610352
9366.388732	1.128823	0.322058	11185.490234
9366.389760	1.107653	0.322058	12324.157227
9366.390811	0.594086	0.322058	12948.541016
9366.391692	0.092651	0.322058	13030.166992
9366.392583	0.083837	0.322058	13104.865234
9366.393671	0.083987	0.322058	13196.243164
9366.394619	0.083877	0.322058	13275.758789
9366.395482	0.083914	0.322058	13348.175781
9366.396508	0.083950	0.322058	13434.308594
9366.397548	0.083884	0.322058	13521.547852
9366.398420	0.083947	0.322058	13594.749023
9366.399354	0.083961	0.322058	13673.168945
9366.400418	0.083950	0.322058	13762.492187
9367.201228	0.854740	0.363404	376.085571
9367.202155	1.317880	0.363404	1597.759888
9367.203036	1.330177	0.363404	2769.645996
9367.203962	1.303484	0.363404	3976.671875
9367.204904	1.272649	0.363404	5175.507324
9367.205854	1.243550	0.363404	6356.879883
9367.206726	1.217040	0.363404	7418.138672
9367.207642	1.190204	0.363404	8508.365234
9367.208610	1.163353	0.363404	9634.491211
9367.209541	1.138414	0.363404	10694.354492
9367.210432	1.120192	0.363404	11692.445312
9367.211389	1.094641	0.363404	12740.016602
9367.212325	0.292661	0.363404	13013.947266
9367.213249	0.084844	0.363404	13092.342773
9367.214111	0.083840	0.363404	13164.613281
9367.215089	0.083826	0.363404	13246.594727
9367.216020	0.083848	0.363404	13324.657227
9367.216883	0.083851	0.363404	13397.020508
9367.217820	0.083877	0.363404	13475.613281
9367.218769	0.083888	0.363404	13555.222656
9367.219693	0.083947	0.363404	13632.789062
9367.220566	0.083910	0.363404	13706.041992
9368.444369	0.865521	0.323439	378.232758
9368.445246	1.315056	0.323439	1531.537109
9368.446138	1.330082	0.323439	2717.970215
9368.447254	1.298540	0.323439	4167.141113
9368.448149	1.269529	0.323439	5303.369141
9368.449019	1.242667	0.323439	6384.489746
9368.450071	1.211342	0.323439	7658.821289
9368.451058	1.183011	0.323439	8826.453125
9368.451936	1.158336	0.323439	9843.472656
9368.452831	1.134327	0.323439	10858.695312
9368.453935	1.112897	0.323439	12087.333008
9368.454821	0.949255	0.323439	12928.373047
9368.455687	0.164623	0.323439	13070.936523
9368.456731	0.083760	0.323439	13158.381836
9368.457680	0.083888	0.323439	13237.991211
9368.458549	0.083811	0.323439	13310.823242
9368.459412	0.083877	0.323439	13383.208984
9368.460525	0.083888	0.323439	13476.576172
9368.461430	0.083785	0.323439	13552.402344
9368.462294	0.083859	0.323439	13624.856445
9368.463354	0.083976	0.323439	13713.871094
9368.464330	0.083778	0.323439	13795.638672
9369.263548	0.848027	0.352330	360.411621
9369.264426	1.312324	0.352330	1512.632324
9369.265405	1.329075	0.352330	2813.796387
9369.266332	1.301675	0.352330	4020.448975
9369.267210	1.273667	0.352330	5138.728516
9369.268153	1.244941	0.352330	6312.708008
9369.269110	1.215872	0.352330	7476.296875
9369.270027	1.188966	0.352330	8566.579102
9369.270906	1.164221	0.352330	9589.929687
9369.271862	1.139070	0.352330	10678.880859
9369.272802	1.119613	0.352330	11731.317383
9369.273709	1.097282	0.352330	12726.551758
9369.274578	0.362578	0.352330	13041.631836
9369.275556	0.085323	0.352330	13125.078125
9369.276480	0.083778	0.352330	13202.489258
9369.277340	0.083921	0.352330	13274.661133
9369.278304	0.083921	0.352330	13355.560547
9369.279255	0.083855	0.352330	13435.306641
9369.280129	0.083855	0.352330	13508.595703
9369.281043	0.083950	0.352330	13585.326172
9369.281962	0.083833	0.352330	13662.369141
9369.282919	0.083807	0.352330	13742.573242
9370.509755	0.847068	0.327307	360.003845
9370.510710	1.320062	0.327307	1620.663330
9370.511655	1.327980	0.327307	2875.604248
9370.512577	1.300408	0.327307	4074.580078
9370.513452	1.272074	0.327307	5187.644531
9370.514425	1.242627	0.327307	6396.720703
9370.515380	1.214018	0.327307	7556.108398
9370.516277	1.187765	0.327307	8621.533203
9370.517183	1.163167	0.327307	9675.362305
9370.518133	1.137546	0.327307	10756.031250
9370.519069	1.118459	0.327307	11802.909180
9370.519948	1.094161	0.327307	12764.676758
9370.520888	0.300103	0.327307	13046.773437
9370.521819	0.084760	0.327307	13125.684570
9370.522746	0.083903	0.327307	13203.461914
9370.523621	0.083903	0.327307	13276.876953
9370.524581	0.083837	0.327307	13357.360352
9370.525508	0.083888	0.327307	13435.124023
9370.526386	0.083866	0.327307	13508.758789
9370.527361	0.083888	0.327307	13590.549805
9370.528303	0.083895	0.327307	13669.579102
9370.529226	0.083881	0.327307	13747.000977
9371.327926	0.843164	0.356927	354.128906
9371.328864	1.312603	0.356927	1585.350098
9371.329927	1.325607	0.356927	2994.469971
9371.330881	1.296218	0.356927	4231.062500
9371.331744	1.268536	0.356927	5325.809570
9371.332804	1.236233	0.356927	6636.216797
9371.333824	1.205889	0.356927	7866.223145
9371.334708	1.180660	0.356927	8909.926758
9371.335684	1.154227	0.356927	10036.452148
9371.336717	1.128574	0.356927	11202.269531
9371.337642	1.109290	0.356927	12228.362305
9371.338516	0.831603	0.356927	12955.183594
9371.339586	0.103934	0.356927	13066.393555
9371.340590	0.083829	0.356927	13150.558594
9371.341463	0.083925	0.356927	13223.825195
9371.342432	0.084020	0.356927	13305.240234
9371.343481	0.083987	0.356927	13393.342773
9371.344390	0.083866	0.356927	13469.577148
9371.345255	0.083939	0.356927	13542.184570
9371.346348	0.084012	0.356927	13634.009766
9371.347349	0.083881	0.356927	13717.974609
9371.348238	0.083899	0.356927	13792.560547
9372.574134	0.854194	0.332684	359.615814
9372.575101	1.318953	0.332684	1635.042969
9372.576041	1.328079	0.332684	2883.437012
9372.576936	1.301224	0.332684	4048.032715
9372.577856	1.272059	0.332684	5218.327148
9372.578826	1.242290	0.332684	6423.348633
9372.579746	1.214008	0.332684	7540.235352
9372.580633	1.188673	0.332684	8594.587891
9372.581561	1.162562	0.332684	9673.445312
9372.582523	1.137187	0.332684	10767.419922
9372.583451	1.118577	0.332684	11805.458984
9372.584317	1.087119	0.332684	12746.904297
9372.585264	0.298359	0.332684	13029.450195
9372.586195	0.084694	0.332684	13108.299805
9372.587076	0.083855	0.332684	13182.175781
9372.588018	0.083990	0.332684	13261.294922
9372.588948	0.083888	0.332684	13339.310547
9372.589869	0.083939	0.332684	13416.618164
9372.590731	0.083840	0.332684	13488.888672
9372.591703	0.083826	0.332684	13570.367187
9372.592664	0.083969	0.332684	13651.060547
9372.593557	0.083899	0.332684	13725.982422
9373.392311	0.845398	0.360887	355.912537
9373.393330	1.320524	0.360887	1701.526123
9373.394249	1.326742	0.360887	2920.802002
9373.395178	1.298906	0.360887	4127.485840
9373.396048	1.269804	0.360887	5232.214844
9373.397114	1.238284	0.360887	6552.225098
9373.398014	1.211232	0.360887	7642.333496
9373.398891	1.186091	0.360887	8682.535156
9373.399915	1.158461	0.360887	9868.798828
9373.400840	1.133394	0.360887	10917.187500
9373.401766	1.115654	0.360887	11950.283203
9373.402633	0.993512	0.360887	12811.658203
9373.403693	0.160063	0.360887	12981.325195
9373.404562	0.083837	0.360887	13054.179687
9373.405439	0.083947	0.360887	13127.800781
9373.406404	0.083782	0.360887	13208.650391
9373.407343	0.083833	0.360887	13287.369141
9373.408260	0.083899	0.360887	13364.304687
9373.409125	0.083881	0.360887	13436.861328
9373.410168	0.083928	0.360887	13524.398437
9373.411059	0.083888	0.360887	13599.142578
9373.411931	0.083884	0.360887	13672.290039
9374.637512	0.857032	0.331375	369.381012
9374.638399	1.313921	0.331375	1534.828735
9374.639502	1.325449	0.331375	2996.799316
9374.640478	1.295841	0.331375	4261.540039
9374.641351	1.267712	0.331375	5368.252930
9374.642382	1.236061	0.331375	6642.631836
9374.643420	1.205167	0.331375	7893.595215
9374.644319	1.179525	0.331375	8953.988281
9374.645274	1.153707	0.331375	10055.778320
9374.646344	1.127589	0.331375	11262.298828
9374.647271	1.107766	0.331375	12289.198242
9374.648151	0.775562	0.331375	12971.692383
9374.649223	0.095665	0.331375	13074.245117
9374.650231	0.083771	0.331375	13158.685547
9374.651121	0.083866	0.331375	13233.326172
9374.652098	0.083961	0.331375	13315.356445
9374.653155	0.083903	0.331375	13404.041016
9374.654065	0.083844	0.331375	13480.338867
9374.654928	0.083925	0.331375	13552.765625
9374.656013	0.083947	0.331375	13643.847656
9374.657004	0.083914	0.331375	13727.005859
9374.657881	0.084009	0.331375	13800.681641
9375.458762	0.869623	0.366679	378.285889
9375.459639	1.314335	0.366679	1530.957520
9375.460564	1.329635	0.366679	2760.869873
9375.461536	1.301210	0.366679	4025.645508
9375.462465	1.271737	0.366679	5207.089355
9375.463335	1.244337	0.366679	6289.662598
9375.464308	1.215663	0.366679	7472.502441
9375.465265	1.188241	0.366679	8609.648437
9375.466159	1.162947	0.366679	9649.323242
9375.467056	1.138916	0.366679	10670.930664
9375.467999	1.119045	0.366679	11726.190430
9375.468921	1.093425	0.366679	12734.328125
9375.469806	0.332970	0.366679	13029.006836
9375.470779	0.084913	0.366679	13111.627930
9375.471729	0.083829	0.366679	13191.265625
9375.472618	0.083903	0.366679	13265.855469
9375.473531	0.083829	0.366679	13342.391602
9375.474490	0.083877	0.366679	13422.830078
9375.475415	0.083976	0.366679	13500.507812
9375.476277	0.083884	0.366679	13572.816406
9375.477249	0.083840	0.366679	13654.309570
9375.478192	0.083862	0.366679	13733.391602
9376.699910	0.913422	0.329941	440.269257
9376.700797	1.319345	0.329941	1610.527832
9376.701667	1.330111	0.329941	2767.724365
9376.702638	1.301719	0.329941	4031.693359
9376.703610	1.270206	0.329941	5266.333984
9376.704529	1.241887	0.329941	6407.628418
9376.705414	1.215187	0.329941	7483.068359
9376.706446	1.185919	0.329941	8706.936523
9376.707345	1.160607	0.329941	9750.322266
9376.708220	1.137158	0.329941	10745.335937
9376.709125	1.118522	0.329941	11757.597656
9376.710150	1.051549	0.329941	12835.435547
9376.711050	0.231680	0.329941	13043.947266
9376.711923	0.084397	0.329941	13117.625977
9376.712939	0.083851	0.329941	13202.819336
9376.713844	0.083892	0.329941	13278.741211
9376.714749	0.083899	0.329941	13354.669922
9376.715626	0.083976	0.329941	13428.316406
9376.716656	0.083899	0.329941	13514.732422
9376.717551	0.083848	0.329941	13589.776367
9376.718429	0.083961	0.329941	13663.494141
9376.719392	0.083983	0.329941	13744.370117
9377.524149	0.850803	0.373902	357.337341
9377.525124	1.318656	0.373902	1643.026855
9377.526050	1.328101	0.373902	2872.848145
9377.526943	1.301232	0.373902	4034.848145
9377.527897	1.271294	0.373902	5247.662598
9377.528967	1.237866	0.373902	6572.179687
9377.529970	1.207775	0.373902	7783.577637
9377.530864	1.182294	0.373902	8840.547852
9377.531854	1.155271	0.373902	9984.265625
9377.532905	1.129420	0.373902	11171.286133
9377.533807	1.110531	0.373902	12172.985352
9377.534668	0.860197	0.373902	12913.614258
9377.535769	0.108552	0.373902	13033.129883
9377.536734	0.083859	0.373902	13114.053711
9377.537600	0.083888	0.373902	13186.700195
9377.538621	0.083994	0.373902	13272.458008
9377.539667	0.083917	0.373902	13360.235352
9377.540544	0.083998	0.373902	13433.901367
9377.541405	0.083873	0.373902	13506.116211
9377.542526	0.083936	0.373902	13600.208008
9377.543476	0.083870	0.373902	13679.883789
9377.544344	0.083928	0.373902	13752.733398
9378.763203	0.871058	0.331883	374.555084
9378.764188	1.320802	0.331883	1675.545044
9378.765114	1.327727	0.331883	2905.020264
9378.765988	1.301213	0.331883	4042.280762
9378.766907	1.271649	0.331883	5210.926270
9378.767862	1.242242	0.331883	6397.267578
9378.768788	1.214626	0.331883	7522.011719
9378.769668	1.188834	0.331883	8568.185547
9378.770625	1.162808	0.331883	9680.992187
9378.771549	1.137327	0.331883	10731.881836
9378.772479	1.118906	0.331883	11772.464844
9378.773347	1.092045	0.331883	12720.359375
9378.774328	0.300103	0.331883	13014.759766
9378.775267	0.084730	0.331883	13094.321289
9378.776147	0.083855	0.331883	13168.113281
9378.777060	0.083877	0.331883	13244.693359
9378.778028	0.083840	0.331883	13325.850586
9378.778955	0.083738	0.331883	13403.475586
9378.779827	0.083910	0.331883	13476.645508
9378.780779	0.083796	0.331883	13556.419922
9378.781732	0.083833	0.331883	13636.312500
9378.782618	0.083807	0.331883	13710.565430
9379.589626	0.908672	0.376094	442.523224
9379.590502	1.318656	0.376094	1597.665771
9379.591368	1.329624	0.376094	2749.120117
9379.592425	1.298496	0.376094	4121.630371
9379.593376	1.268372	0.376094	5327.851562
9379.594256	1.241426	0.376094	6420.306152
9379.595209	1.213000	0.376094	7576.295410
9379.596255	1.182880	0.376094	8813.587891
9379.597148	1.158083	0.376094	9847.755859
9379.598018	1.134672	0.376094	10834.919922
9379.599102	1.113267	0.376094	12041.701172
9379.600051	0.928641	0.376094	12922.981445
9379.600933	0.152146	0.376094	13057.173828
9379.601877	0.083932	0.376094	13136.405273
9379.602912	0.083888	0.376094	13223.229492
9379.603792	0.083979	0.376094	13297.131836
9379.604652	0.083903	0.376094	13369.288086
9379.605697	0.084016	0.376094	13457.084961
9379.606636	0.083826	0.376094	13535.796875
9379.607505	0.083892	0.376094	13608.698242
9379.608397	0.083862	0.376094	13683.503906
9379.609482	0.083954	0.376094	13774.593750
9380.826568	0.854908	0.338590	371.885193
9380.827434	1.312687	0.338590	1508.671875
9380.828502	1.326910	0.338590	2925.812012
9380.829528	1.295955	0.338590	4255.461426
9380.830409	1.267643	0.338590	5372.254883
9380.831379	1.238225	0.338590	6573.333008
9380.832439	1.206555	0.338590	7852.281250
9380.833356	1.179943	0.338590	8934.289062
9380.834221	1.155608	0.338590	9933.889648
9380.835289	1.129435	0.338590	11140.125977
9380.836304	1.107960	0.338590	12264.705078
9380.837202	0.793348	0.338590	12977.131836
9380.838182	0.110076	0.338590	13085.005859
9380.839235	0.083892	0.338590	13173.343750
9380.840145	0.083870	0.338590	13249.665039
9380.841011	0.083987	0.338590	13322.397461
9380.842116	0.084089	0.338590	13415.316406
9380.843094	0.083903	0.338590	13497.373047
9380.843966	0.083965	0.338590	13570.590820
9380.845053	0.083950	0.338590	13661.844727
9380.846093	0.083979	0.338590	13749.183594
9380.846982	0.083917	0.338590	13823.786133
9381.655005	0.885656	0.382104	399.430634
9381.655871	1.315148	0.382104	1538.348511
9381.656850	1.328364	0.382104	2838.817139
9381.657782	1.300752	0.382104	4051.117920
9381.658657	1.272605	0.382104	5164.647461
9381.659573	1.244154	0.382104	6304.292480
9381.660539	1.215198	0.382104	7478.173340
9381.661468	1.188369	0.382104	8582.167969
9381.662352	1.163390	0.382104	9610.604492
9381.663331	1.137905	0.382104	10724.613281
9381.664260	1.118569	0.382104	11763.764648
9381.665191	1.088196	0.382104	12776.875000
9381.666060	0.311312	0.382104	13047.405273
9381.667043	0.084818	0.382104	13130.781250
9381.667998	0.083859	0.382104	13210.866211
9381.668876	0.083866	0.382104	13284.500977
9381.669781	0.083899	0.382104	13360.429687
9381.670728	0.083829	0.382104	13439.816406
9381.671653	0.083873	0.382104	13517.399414
9381.672530	0.083917	0.382104	13590.995117
9381.673447	0.083866	0.382104	13667.900391
9381.674401	0.083884	0.382104	13747.925781
9382.889024	0.954752	0.337438	522.249451
9382.889936	1.326094	0.337438	1731.646973
9382.890864	1.326533	0.337438	2962.669922
9382.891734	1.298694	0.337438	4092.533691
9382.892783	1.266434	0.337438	5421.023437
9382.893666	1.239144	0.337438	6515.187500
9382.894536	1.213224	0.337438	7570.692383
9382.895544	1.184692	0.337438	8764.862305
9382.896463	1.158431	0.337438	9829.460937
9382.897380	1.134364	0.337438	10869.672852
9382.898260	1.116896	0.337438	11852.541016
9382.899299	0.985042	0.337438	12875.999023
9382.900200	0.178938	0.337438	13037.221680
9382.901073	0.083969	0.337438	13110.526367
9382.902019	0.083928	0.337438	13189.922852
9382.902997	0.083877	0.337438	13271.954102
9382.903923	0.083862	0.337438	13349.610352
9382.904790	0.083899	0.337438	13422.350586
9382.905817	0.083826	0.337438	13508.439453
9382.906700	0.083804	0.337438	13582.438477
9382.907563	0.083925	0.337438	13654.865234
9382.908452	0.083895	0.337438	13729.448242
9383.722439	0.854451	0.402153	365.704895
9383.723364	1.312738	0.402153	1579.987549
9383.724318	1.328309	0.402153	2847.194580
9383.725259	1.300045	0.402153	4070.537109
9383.726134	1.271854	0.402153	5183.409668
9383.727060	1.242894	0.402153	6334.330078
9383.728021	1.214238	0.402153	7501.212891
9383.728946	1.187622	0.402153	8599.763672
9383.729827	1.162936	0.402153	9624.310547
9383.730808	1.137297	0.402153	10739.999023
9383.731750	1.118196	0.402153	11793.339844
9383.732668	1.082644	0.402153	12787.207031
9383.733545	0.294913	0.402153	13045.845703
9383.734501	0.084792	0.402153	13126.907227
9383.735454	0.083877	0.402153	13206.841797
9383.736332	0.083833	0.402153	13280.447266
9383.737243	0.083804	0.402153	13356.791992
9383.738195	0.083881	0.402153	13436.646484
9383.739121	0.083888	0.402153	13514.327148
9383.740006	0.083884	0.402153	13588.564453
9383.740965	0.083826	0.402153	13668.953125
9383.741890	0.083928	0.402153	13746.586914
9384.952265	0.853026	0.338030	365.095184
9384.953201	1.318458	0.338030	1599.172119
9384.954177	1.327683	0.338030	2894.990723
9384.955113	1.299452	0.338030	4111.277832
9384.955982	1.271239	0.338030	5215.984375
9384.956957	1.242177	0.338030	6427.106445
9384.957901	1.213509	0.338030	7572.659180
9384.958785	1.187201	0.338030	8622.144531
9384.959660	1.162390	0.338030	9639.236328
9384.960654	1.136349	0.338030	10768.767578
9384.961619	1.117423	0.338030	11847.081055
9384.962516	1.075873	0.338030	12812.138672
9384.963437	0.263386	0.338030	13054.717773
9384.964393	0.084229	0.338030	13135.240234
9384.965284	0.083961	0.338030	13210.049805
9384.966204	0.083899	0.338030	13287.236328
9384.967145	0.083899	0.338030	13366.185547
9384.968081	0.083936	0.338030	13444.749023
9384.968958	0.083914	0.338030	13518.340820
9384.969869	0.083979	0.338030	13594.845703
9384.970824	0.083939	0.338030	13675.007812
9384.971752	0.083969	0.338030	13752.930664
9385.786845	0.893016	0.406423	409.894501
9385.787733	1.316646	0.406423	1579.075684
9385.788749	1.327189	0.406423	2927.499268
9385.789651	1.299163	0.406423	4099.343750
9385.790569	1.270408	0.406423	5265.578125
9385.791434	1.242382	0.406423	6340.238281
9385.792493	1.211788	0.406423	7623.521973
9385.793371	1.186124	0.406423	8664.939453
9385.794249	1.161951	0.406423	9685.131836
9385.795240	1.135888	0.406423	10810.796875
9385.796174	1.116936	0.406423	11854.014648
9385.797100	1.058925	0.406423	12834.579102
9385.797977	0.251561	0.406423	13055.198242
9385.799022	0.084056	0.406423	13143.037109
9385.799921	0.083877	0.406423	13218.442383
9385.800795	0.083906	0.406423	13291.776367
9385.801742	0.083972	0.406423	13371.297852
9385.802719	0.083884	0.406423	13453.252930
9385.803640	0.083851	0.406423	13530.480469
9385.804508	0.083932	0.406423	13603.333008
9385.805550	0.083895	0.406423	13690.751953
9385.806421	0.083848	0.406423	13763.783203
9387.016631	0.845270	0.338352	355.858582
9387.017646	1.318290	0.338352	1693.922607
9387.018714	1.323889	0.338352	3107.836182
9387.019610	1.295149	0.338352	4268.289551
9387.020499	1.266130	0.338352	5393.879395
9387.021597	1.233629	0.338352	6748.404297
9387.022551	1.205076	0.338352	7898.046387
9387.023413	1.180356	0.338352	8915.513672
9387.024449	1.152213	0.338352	10109.207031
9387.025488	1.127322	0.338352	11280.494141
9387.026376	1.108411	0.338352	12264.762695
9387.027325	0.725563	0.338352	12953.321289
9387.028391	0.094288	0.338352	13053.833008
9387.029335	0.083793	0.338352	13132.933594
9387.030191	0.083979	0.338352	13204.820312
9387.031227	0.083910	0.338352	13291.750977
9387.032256	0.083884	0.338352	13378.068359
9387.033145	0.083928	0.338352	13452.680664
9387.034110	0.084001	0.338352	13533.742187
9387.035166	0.083994	0.338352	13622.440430
9387.036075	0.083895	0.338352	13698.701172
9387.036943	0.083976	0.338352	13771.591797
9387.851202	0.853722	0.408103	369.661591
9387.852070	1.312225	0.408103	1508.673218
9387.853066	1.328408	0.408103	2831.767578
9387.853996	1.300734	0.408103	4041.449951
9387.854878	1.272308	0.408103	5163.625977
9387.855814	1.243989	0.408103	6328.000000
9387.856752	1.215187	0.408103	7467.845215
9387.857650	1.188933	0.408103	8535.506836
9387.858528	1.164031	0.408103	9557.525391
9387.859496	1.138400	0.408103	10659.496094
9387.860453	1.119104	0.408103	11730.478516
9387.861346	1.097289	0.408103	12710.357422
9387.862256	0.361718	0.408103	13039.520508
9387.863206	0.085474	0.408103	13120.720703
9387.864128	0.083789	0.408103	13197.974609
9387.864995	0.083859	0.408103	13270.679687
9387.865946	0.083833	0.408103	13350.405273
9387.866877	0.083844	0.408103	13428.463867
9387.867792	0.083910	0.408103	13505.241211
9387.868669	0.083818	0.408103	13578.750000
9387.869634	0.083888	0.408103	13659.702148
9387.870591	0.083899	0.408103	13739.993164
9389.081026	0.867374	0.340306	372.970917
9389.082077	1.326010	0.340306	1766.606934
9389.082981	1.326273	0.340306	2965.557861
9389.083861	1.299397	0.340306	4109.027344
9389.084843	1.268705	0.340306	5354.895508
9389.085808	1.238313	0.340306	6549.867676
9389.086737	1.210737	0.340306	7674.642578
9389.087603	1.185436	0.340306	8701.230469
9389.088638	1.157505	0.340306	9899.248047
9389.089526	1.133796	0.340306	10906.059570
9389.090454	1.116020	0.340306	11941.726562
9389.091324	1.035308	0.340306	12842.444336
9389.092297	0.188251	0.340306	13025.612305
9389.093217	0.083950	0.340306	13102.846680
9389.094103	0.083921	0.340306	13177.200195
9389.095078	0.084005	0.340306	13259.105469
9389.095994	0.083848	0.340306	13335.910156
9389.096910	0.083998	0.340306	13412.852539
9389.097773	0.083979	0.340306	13485.327148
9389.098818	0.083939	0.340306	13573.043945
9389.099707	0.083972	0.340306	13647.695312
9389.100577	0.083943	0.340306	13720.725586
9389.917714	0.916824	0.413694	461.162323
9389.918715	1.327405	0.413694	1789.894531
9389.919606	1.325691	0.413694	2971.085205
9389.920580	1.295797	0.413694	4233.191406
9389.921648	1.262076	0.413694	5581.088867
9389.922562	1.233761	0.413694	6708.746094
9389.923434	1.206610	0.413694	7760.910156
9389.924552	1.175947	0.413694	9075.619141
9389.925533	1.149514	0.413694	10203.292969
9389.926402	1.128032	0.413694	11183.552734
9389.927497	1.104653	0.413694	12393.148437
9389.928545	0.515870	0.413694	12933.780273
9389.929439	0.088762	0.413694	13013.133789
9389.930376	0.083936	0.413694	13091.781250
9389.931428	0.083947	0.413694	13180.092773
9389.932370	0.083899	0.413694	13259.125977
9389.933235	0.083947	0.413694	13331.739258
9389.934303	0.083990	0.413694	13421.441406
9389.935308	0.083859	0.413694	13505.719727
9389.936190	0.083892	0.413694	13579.711914
9389.937167	0.083921	0.413694	13661.702148
9389.938208	0.083972	0.413694	13749.117187
9391.145398	0.842234	0.347323	353.738251
9391.146318	1.313247	0.347323	1561.925659
9391.147271	1.328309	0.347323	2827.804443
9391.148201	1.300671	0.347323	4037.428955
9391.149082	1.272323	0.347323	5158.345703
9391.150045	1.243114	0.347323	6355.464355
9391.150969	1.214414	0.347323	7477.583008
9391.151903	1.187970	0.347323	8587.146484
9391.152772	1.163265	0.347323	9598.024414
9391.153753	1.137557	0.347323	10713.968750
9391.154693	1.118745	0.347323	11765.588867
9391.155561	1.092440	0.347323	12713.827148
9391.156517	0.315754	0.347323	13015.688477
9391.157460	0.084719	0.347323	13095.579102
9391.158350	0.083921	0.347323	13170.268555
9391.159227	0.083910	0.347323	13243.857422
9391.160183	0.083862	0.347323	13324.029297
9391.161136	0.083840	0.347323	13403.928711
9391.162028	0.083950	0.347323	13478.812500
9391.162934	0.083895	0.347323	13554.821289
9391.163893	0.083862	0.347323	13635.245117
9391.164815	0.083866	0.347323	13712.569336
9391.983045	0.851715	0.416091	367.940918
9391.983918	1.311995	0.416091	1513.312134
9391.984877	1.329122	0.416091	2787.940430
9391.985784	1.302063	0.416091	3968.911621
9391.986702	1.272872	0.416091	5137.408203
9391.987585	1.245476	0.416091	6237.163574
9391.988559	1.215923	0.416091	7421.472656
9391.989493	1.188680	0.416091	8531.700195
9391.990425	1.163207	0.416091	9615.808594
9391.991291	1.139615	0.416091	10602.715820
9391.992268	1.119792	0.416091	11696.752930
9391.993221	1.093264	0.416091	12738.633789
9391.994117	0.333885	0.416091	13037.794922
9391.995055	0.085972	0.416091	13118.436523
9391.995957	0.083976	0.416091	13194.182617
9391.996887	0.083895	0.416091	13272.205078
9391.997759	0.083958	0.416091	13345.416016
9391.998784	0.083972	0.416091	13431.487305
9391.999705	0.083939	0.416091	13508.794922
9392.000587	0.083950	0.416091	13582.838867
9392.001476	0.083906	0.416091	13657.431641
9392.002452	0.083903	0.416091	13739.320312
9393.209808	0.870692	0.349237	383.104553
9393.210673	1.313877	0.349237	1519.608154
9393.211717	1.327350	0.349237	2905.361328
9393.212609	1.300089	0.349237	4065.040771
9393.213479	1.272389	0.349237	5172.019043
9393.214470	1.241982	0.349237	6402.823730
9393.215410	1.213202	0.349237	7543.233398
9393.216325	1.187040	0.349237	8629.375000
9393.217206	1.162174	0.349237	9653.250000
9393.218255	1.134811	0.349237	10843.666016
9393.219154	1.117342	0.349237	11848.157227
9393.220035	1.080652	0.349237	12800.211914
9393.220990	0.271703	0.349237	13059.688477
9393.221965	0.084221	0.349237	13141.803711
9393.222886	0.084005	0.349237	13219.172852
9393.223750	0.084100	0.349237	13291.835937
9393.224793	0.084005	0.349237	13379.453125
9393.225662	0.084042	0.349237	13452.485352
9393.226540	0.084042	0.349237	13526.274414
9393.227431	0.084005	0.349237	13601.123047
9393.228475	0.083925	0.349237	13688.740234
9393.229372	0.083903	0.349237	13764.000977
9394.047446	0.870897	0.415942	385.807465
9394.048324	1.314368	0.415942	1539.822266
9394.049186	1.330217	0.415942	2686.469482
9394.050141	1.302484	0.415942	3930.341797
9394.051110	1.272144	0.415942	5163.048828
9394.052013	1.244022	0.415942	6286.400879
9394.052968	1.215516	0.415942	7447.218750
9394.054045	1.184396	0.415942	8722.812500
9394.055039	1.156706	0.415942	9872.579102
9394.055935	1.133258	0.415942	10887.978516
9394.056933	1.113647	0.415942	11999.398437
9394.057993	0.858355	0.415942	12909.253906
9394.058889	0.124420	0.415942	13020.734375
9394.059753	0.083804	0.415942	13093.140625
9394.060865	0.084001	0.415942	13186.549805
9394.061823	0.083837	0.415942	13266.865234
9394.062694	0.083877	0.415942	13339.921875
9394.063744	0.083950	0.415942	13428.069336
9394.064755	0.083895	0.415942	13512.887695
9394.065639	0.083921	0.415942	13587.074219
9394.066559	0.083961	0.415942	13664.318359
9394.067626	0.083888	0.415942	13753.827148
9395.274177	0.850950	0.351432	361.653625
9395.275081	1.312485	0.351432	1548.140381
9395.276035	1.328346	0.351432	2815.382324
9395.276992	1.300261	0.351432	4059.732422
9395.277873	1.272122	0.351432	5180.471680
9395.278808	1.243220	0.351432	6342.882812
9395.279777	1.213989	0.351432	7519.238281
9395.280694	1.187391	0.351432	8608.076172
9395.281574	1.162701	0.351432	9631.252930
9395.282532	1.137400	0.351432	10720.881836
9395.283490	1.118262	0.351432	11792.176758
9395.284384	1.090221	0.351432	12766.833984
9395.285304	0.316637	0.351432	13058.139648
9395.286232	0.084723	0.351432	13136.762695
9395.287181	0.083826	0.351432	13216.313477
9395.288070	0.083888	0.351432	13290.889648
9395.289001	0.083877	0.351432	13368.979492
9395.289961	0.083943	0.351432	13449.564453
9395.290833	0.083958	0.351432	13522.775391
9395.291748	0.083895	0.351432	13599.540039
9395.292660	0.083870	0.351432	13676.029297
9395.293620	0.083873	0.351432	13756.547852
9396.113959	0.939445	0.424010	493.208405
9396.114928	1.326874	0.424010	1778.949097
9396.115802	1.326288	0.424010	2938.124512
9396.116687	1.298221	0.424010	4087.050537
9396.117805	1.264578	0.424010	5500.848145
9396.118703	1.236423	0.424010	6611.156250
9396.119571	1.210371	0.424010	7661.758301
9396.120626	1.180294	0.424010	8906.968750
9396.121603	1.153649	0.424010	10034.083984
9396.122477	1.130863	0.424010	11022.458008
9396.123355	1.113007	0.424010	11999.677734
9396.124471	0.823407	0.424010	12918.599609
9396.125343	0.120421	0.424010	13023.606445
9396.126214	0.083785	0.424010	13096.583984
9396.127089	0.083965	0.424010	13170.052734
9396.128150	0.083932	0.424010	13259.104492
9396.129042	0.083899	0.424010	13333.942383
9396.129920	0.083895	0.424010	13407.602539
9396.130914	0.083925	0.424010	13491.023437
9396.131853	0.083899	0.424010	13569.804687
9396.132769	0.083906	0.424010	13646.663086
9396.133634	0.083873	0.424010	13719.213867
9397.337611	0.911089	0.351682	457.366608
9397.338504	1.321271	0.351682	1637.261475
9397.339367	1.328174	0.351682	2783.475586
9397.340491	1.295233	0.351682	4239.317383
9397.341469	1.264742	0.351682	5476.235352
9397.342345	1.237548	0.351682	6560.327148
9397.343399	1.206270	0.351682	7831.735352
9397.344433	1.176940	0.351682	9048.691406
9397.345333	1.152056	0.351682	10085.541992
9397.346265	1.129501	0.351682	11138.236328
9397.347332	1.106726	0.351682	12319.113281
9397.348274	0.694380	0.351682	12973.218750
9397.349131	0.101913	0.351682	13060.557617
9397.350185	0.083888	0.351682	13148.975586
9397.351211	0.083961	0.351682	13235.120117
9397.352089	0.083910	0.351682	13308.792969
9397.353045	0.083969	0.351682	13389.066406
9397.354095	0.083947	0.351682	13477.209961
9397.355022	0.083994	0.351682	13555.072266
9397.355883	0.083943	0.351682	13627.346680
9397.356944	0.083972	0.351682	13716.441406
9397.357951	0.083892	0.351682	13800.919922
9398.178282	0.911565	0.425739	432.081787
9398.179217	1.321578	0.425739	1667.757568
9398.180144	1.327343	0.425739	2898.204102
9398.181009	1.300587	0.425739	4023.211914
9398.181992	1.269712	0.425739	5271.338867
9398.182963	1.240144	0.425739	6475.518555
9398.183863	1.213066	0.425739	7567.278320
9398.184777	1.186714	0.425739	8651.934570
9398.185743	1.160358	0.425739	9772.839844
9398.186672	1.135452	0.425739	10827.674805
9398.187540	1.118262	0.425739	11798.326172
9398.188469	1.066754	0.425739	12789.340820
9398.189417	0.242834	0.425739	13019.547852
9398.190343	0.084243	0.425739	13097.556641
9398.191216	0.083826	0.425739	13170.736328
9398.192185	0.083881	0.425739	13252.016602
9398.193134	0.083848	0.425739	13331.587891
9398.194030	0.083903	0.425739	13406.764648
9398.194944	0.083888	0.425739	13483.438477
9398.195882	0.083870	0.425739	13562.108398
9398.196796	0.083947	0.425739	13638.835937
9398.197655	0.083884	0.425739	13710.892578
9399.404104	0.958059	0.351416	538.429199
9399.404981	1.324446	0.351416	1699.968140
9399.405898	1.326368	0.351416	2916.248047
9399.406793	1.299551	0.351416	4079.345947
9399.407740	1.269353	0.351416	5281.423340
9399.408692	1.240210	0.351416	6462.103027
9399.409590	1.213000	0.351416	7551.377441
9399.410557	1.185930	0.351416	8698.171875
9399.411515	1.158669	0.351416	9808.177734
9399.412454	1.134144	0.351416	10873.139648
9399.413327	1.116581	0.351416	11847.915039
9399.414375	0.987426	0.351416	12882.737305
9399.415258	0.183541	0.351416	13044.804687
9399.416179	0.084038	0.351416	13122.204102
9399.417037	0.083866	0.351416	13194.161133
9399.418005	0.083877	0.351416	13275.354492
9399.418936	0.083888	0.351416	13353.454102
9399.419812	0.083866	0.351416	13426.920898
9399.420852	0.083910	0.351416	13514.187500
9399.421746	0.083914	0.351416	13589.206055
9399.422666	0.083881	0.351416	13666.375977
9399.423528	0.083859	0.351416	13738.662109
9400.243722	0.909064	0.431829	457.259033
9400.244649	1.322882	0.431829	1683.570679
9400.245523	1.327544	0.431829	2843.843994
9400.246578	1.295874	0.431829	4210.991211
9400.247612	1.263285	0.431829	5517.227539
9400.248503	1.235698	0.431829	6618.234375
9400.249475	1.207170	0.431829	7791.604004
9400.250524	1.177200	0.431829	9026.486328
9400.251446	1.151730	0.431829	10088.380859
9400.252310	1.129669	0.431829	11064.415039
9400.253415	1.106836	0.431829	12287.468750
9400.254428	0.642711	0.431829	12938.535156
9400.255319	0.095087	0.431829	13023.257812
9400.256316	0.083895	0.431829	13106.901367
9400.257365	0.083947	0.431829	13194.960937
9400.258262	0.083994	0.431829	13270.303711
9400.259127	0.083917	0.431829	13342.892578
9400.260232	0.084064	0.431829	13435.783203
9400.261189	0.083932	0.431829	13516.106445
9400.262049	0.083965	0.431829	13588.316406
9400.263106	0.083961	0.431829	13677.063477
9400.264142	0.083961	0.431829	13764.046875
9401.467328	0.856476	0.355348	366.571655
9401.468193	1.312467	0.355348	1501.855713
9401.469167	1.328668	0.355348	2795.978516
9401.470092	1.301649	0.355348	4000.003906
9401.470970	1.273206	0.355348	5117.878418
9401.471947	1.243623	0.355348	6332.897949
9401.472902	1.215124	0.355348	7493.341797
9401.473796	1.188779	0.355348	8556.110352
9401.474695	1.163840	0.355348	9602.402344
9401.475645	1.138092	0.355348	10683.589844
9401.476603	1.118822	0.355348	11755.420898
9401.477485	1.097157	0.355348	12723.113281
9401.478405	0.336636	0.355348	13032.818359
9401.479349	0.085133	0.355348	13113.183594
9401.480279	0.083947	0.355348	13191.253906
9401.481154	0.083892	0.355348	13264.659180
9401.482115	0.083914	0.355348	13345.299805
9401.483029	0.083917	0.355348	13422.000000
9401.483949	0.083979	0.355348	13499.260742
9401.484810	0.083855	0.355348	13571.459961
9401.485778	0.083947	0.355348	13652.719727
9401.486720	0.083932	0.355348	13731.783203
9402.309064	0.857036	0.433469	368.525543
9402.309986	1.313507	0.433469	1579.578979
9402.310995	1.326595	0.433469	2918.113770
9402.311915	1.298225	0.433469	4112.480957
9402.312792	1.270228	0.433469	5226.471191
9402.313901	1.236262	0.433469	6597.485840
9402.314804	1.209111	0.433469	7689.313477
9402.315684	1.183960	0.433469	8731.198242
9402.316593	1.158501	0.433469	9784.275391
9402.317613	1.132284	0.433469	10939.205078
9402.318530	1.114277	0.433469	11960.997070
9402.319427	1.015496	0.433469	12871.896484
9402.320453	0.168556	0.433469	13044.834961
9402.321350	0.083661	0.433469	13119.878906
9402.322266	0.083895	0.433469	13196.726562
9402.323126	0.083848	0.433469	13268.835937
9402.324173	0.083855	0.433469	13356.631836
9402.325061	0.083881	0.433469	13431.118164
9402.325928	0.083903	0.433469	13503.861328
9402.326917	0.083936	0.433469	13586.874023
9402.327847	0.083837	0.433469	13664.841797
9402.328753	0.083947	0.433469	13740.897461
9403.532819	0.897385	0.361269	461.256012
9403.533869	1.328577	0.361269	1856.261475
9403.534758	1.324431	0.361269	3033.680664
9403.535623	1.297350	0.361269	4155.888184
9403.536685	1.264058	0.361269	5498.317383
9403.537626	1.235090	0.361269	6660.537109
9403.538495	1.208771	0.361269	7710.958984
9403.539441	1.181902	0.361269	8829.038086
9403.540499	1.152858	0.361269	10048.761719
9403.541396	1.130167	0.361269	11062.521484
9403.542261	1.113098	0.361269	12025.351562
9403.543326	0.812102	0.361269	12890.240234
9403.544285	0.108761	0.361269	12994.541992
9403.545163	0.083837	0.361269	13068.150391
9403.546100	0.084012	0.361269	13146.870117
9403.547147	0.083917	0.361269	13234.731445
9403.548035	0.083990	0.361269	13309.315430
9403.548899	0.083939	0.361269	13381.838867
9403.549947	0.083972	0.361269	13469.841797
9403.550895	0.083925	0.361269	13549.402344
9403.551762	0.083994	0.361269	13622.225586
9403.552645	0.083972	0.361269	13696.373047
9404.373448	0.858519	0.435652	371.738861
9404.374308	1.311888	0.435652	1499.962891
9404.375276	1.328313	0.435652	2785.770020
9404.376228	1.300444	0.435652	4023.792969
9404.377125	1.272001	0.435652	5164.777344
9404.378043	1.243682	0.435652	6306.477051
9404.378997	1.214927	0.435652	7465.517090
9404.379933	1.187878	0.435652	8577.371094
9404.380815	1.163119	0.435652	9603.242187
9404.381775	1.137631	0.435652	10695.367187
9404.382722	1.118134	0.435652	11754.239258
9404.383660	1.086453	0.435652	12773.332031
9404.384528	0.309108	0.435652	13041.637695
9404.385507	0.084943	0.435652	13124.796875
9404.386458	0.083906	0.435652	13204.591797
9404.387337	0.083888	0.435652	13278.329102
9404.388257	0.083994	0.435652	13355.603516
9404.389209	0.083866	0.435652	13435.444336
9404.390096	0.083925	0.435652	13509.885742
9404.390978	0.083881	0.435652	13583.868164
9404.391929	0.083873	0.435652	13663.631836
9404.392873	0.083906	0.435652	13742.838867
9405.599193	0.880206	0.362534	392.571991
9405.600066	1.314752	0.362534	1540.350708
9405.601007	1.328936	0.362534	2790.878906
9405.601952	1.300686	0.362534	4020.027344
9405.602888	1.270789	0.362534	5209.485352
9405.603767	1.243539	0.362534	6302.556152
9405.604725	1.215209	0.362534	7466.726074
9405.605667	1.187776	0.362534	8585.611328
9405.606555	1.163071	0.362534	9618.418945
9405.607504	1.137140	0.362534	10697.564453
9405.608472	1.117866	0.362534	11779.659180
9405.609404	1.080959	0.362534	12787.113281
9405.610274	0.294335	0.362534	13043.184570
9405.611260	0.084760	0.362534	13126.757812
9405.612209	0.083928	0.362534	13206.405273
9405.613089	0.083884	0.362534	13280.223633
9405.613976	0.083895	0.362534	13354.638672
9405.614923	0.083866	0.362534	13434.059570
9405.615876	0.083837	0.362534	13513.956055
9405.616764	0.083921	0.362534	13588.477539
9405.617675	0.083833	0.362534	13664.849609
9405.618633	0.083859	0.362534	13745.186523
9406.436881	0.917853	0.428828	455.255005
9406.437761	1.318671	0.428828	1615.685181
9406.438624	1.329013	0.428828	2762.623047
9406.439681	1.298163	0.428828	4134.781250
9406.440634	1.267548	0.428828	5342.753906
9406.441503	1.240474	0.428828	6420.725586
9406.442427	1.212594	0.428828	7541.162109
9406.443498	1.182323	0.428828	8807.429687
9406.444398	1.157402	0.428828	9849.091797
9406.445265	1.134335	0.428828	10832.559570
9406.446309	1.113530	0.428828	11995.084961
9406.447279	0.942349	0.428828	12909.163086
9406.448158	0.156504	0.428828	13046.730469
9406.449069	0.083932	0.428828	13123.192383
9406.450131	0.083873	0.428828	13212.265625
9406.451011	0.083895	0.428828	13286.093750
9406.451875	0.083884	0.428828	13358.569336
9406.452910	0.083925	0.428828	13445.431641
9406.453873	0.083778	0.428828	13526.110352
9406.454742	0.083877	0.428828	13598.999023
9406.455600	0.083870	0.428828	13670.958984
9406.456704	0.083903	0.428828	13763.587891
9407.664573	0.849943	0.368420	361.225616
9407.665583	1.317924	0.368420	1692.328491
9407.666641	1.323534	0.368420	3092.627441
9407.667527	1.295566	0.368420	4240.499023
9407.668405	1.266508	0.368420	5352.492676
9407.669525	1.233582	0.368420	6734.104004
9407.670482	1.204896	0.368420	7887.189453
9407.671348	1.180071	0.368420	8909.130859
9407.672399	1.151843	0.368420	10119.717773
9407.673437	1.127010	0.368420	11289.554687
9407.674312	1.107828	0.368420	12258.904297
9407.675253	0.733213	0.368420	12948.857422
9407.676307	0.094468	0.368420	13048.426758
9407.677245	0.083939	0.368420	13127.162109
9407.678108	0.083972	0.368420	13199.629883
9407.679153	0.084023	0.368420	13287.434570
9407.680175	0.083925	0.368420	13373.205078
9407.681062	0.084005	0.368420	13447.717773
9407.682003	0.083961	0.368420	13526.725586
9407.683053	0.083958	0.368420	13614.880859
9407.683983	0.083910	0.368420	13692.916992
9407.684847	0.083939	0.368420	13765.440430
9408.501197	0.876574	0.434778	385.692352
9408.502117	1.317521	0.434778	1597.811401
9408.502988	1.328584	0.434778	2755.008057
9408.503992	1.300140	0.434778	4060.349121
9408.504924	1.270488	0.434778	5244.444336
9408.505802	1.242971	0.434778	6335.772949
9408.506713	1.215883	0.434778	7443.441895
9408.507662	1.188014	0.434778	8570.867187
9408.508603	1.161709	0.434778	9664.035156
9408.509494	1.138121	0.434778	10678.101562
9408.510405	1.119196	0.434778	11697.688477
9408.511373	1.084611	0.434778	12747.591797
9408.512297	0.293833	0.434778	13019.093750
9408.513158	0.085309	0.434778	13092.544922
9408.514125	0.083837	0.434778	13173.615234
9408.515074	0.083899	0.434778	13253.235352
9408.515962	0.083947	0.434778	13327.780273
9408.516850	0.083822	0.434778	13402.213867
9408.517779	0.083851	0.434778	13480.111328
9408.518715	0.083866	0.434778	13558.610352
9408.519599	0.083840	0.434778	13632.725586
9408.520596	0.083947	0.434778	13716.419922
9409.730014	0.883455	0.370502	403.738739
9409.730898	1.315880	0.370502	1566.976807
9409.731775	1.330005	0.370502	2733.391113
9409.732773	1.301473	0.370502	4032.261719
9409.733724	1.270455	0.370502	5240.464844
9409.734648	1.242012	0.370502	6388.083496
9409.735520	1.215374	0.370502	7447.889160
9409.736574	1.185630	0.370502	8697.542969
9409.737452	1.160764	0.370502	9716.693359
9409.738327	1.137488	0.370502	10711.995117
9409.739265	1.118112	0.370502	11760.784180
9409.740247	1.064846	0.370502	12806.462891
9409.741171	0.245343	0.370502	13033.160156
9409.742049	0.084613	0.370502	13107.450195
9409.743082	0.083936	0.370502	13194.155273
9409.743982	0.083859	0.370502	13269.627930
9409.744852	0.083928	0.370502	13342.645508
9409.745713	0.083840	0.370502	13414.832031
9409.746778	0.083910	0.370502	13504.196289
9409.747654	0.083881	0.370502	13577.675781
9409.748518	0.083895	0.370502	13650.161133
9409.749504	0.083947	0.370502	13732.932617
9410.566639	0.907390	0.437429	423.751190
9410.567519	1.316799	0.437429	1582.534668
9410.568516	1.326401	0.437429	2904.956787
9410.569558	1.294977	0.437429	4254.322754
9410.570463	1.266017	0.437429	5400.067871
9410.571325	1.238668	0.437429	6467.799805
9410.572418	1.206932	0.437429	7786.977051
9410.573415	1.178394	0.437429	8961.835937
9410.574296	1.154139	0.437429	9978.632812
9410.575305	1.129750	0.437429	11118.550781
9410.576358	1.107700	0.437429	12284.958984
9410.577237	0.784010	0.437429	12974.103516
9410.578115	0.112720	0.437429	13073.071289
9410.579208	0.083914	0.437429	13164.789062
9410.580163	0.083936	0.437429	13244.947266
9410.581034	0.083925	0.437429	13318.045898
9410.582089	0.083936	0.437429	13406.597656
9410.583120	0.083873	0.437429	13493.071289
9410.584010	0.083994	0.437429	13567.826172
9410.584940	0.083950	0.437429	13645.899414
9410.586017	0.084071	0.437429	13736.444336
9410.586958	0.083917	0.437429	13815.410156
9411.795395	0.852480	0.375973	365.714111
9411.796259	1.311855	0.375973	1499.157227
9411.797247	1.328873	0.375973	2812.083984
9411.798183	1.300957	0.375973	4029.779785
9411.799062	1.272561	0.375973	5148.360840
9411.799939	1.245040	0.375973	6240.261230
9411.800896	1.216187	0.375973	7404.151855
9411.801856	1.188809	0.375973	8545.408203
9411.802734	1.164053	0.375973	9567.446289
9411.803653	1.139396	0.375973	10614.550781
9411.804603	1.119877	0.375973	11678.433594
9411.805528	1.097637	0.375973	12693.748047
9411.806408	0.381584	0.375973	13029.541992
9411.807393	0.085653	0.375973	13113.910156
9411.808321	0.083877	0.375973	13191.748047
9411.809241	0.083903	0.375973	13268.938477
9411.810101	0.083888	0.375973	13341.082031
9411.811072	0.083961	0.375973	13422.608398
9411.812030	0.083961	0.375973	13503.042969
9411.812904	0.083943	0.375973	13576.409180
9411.813808	0.083899	0.375973	13652.253906
9411.814760	0.083976	0.375973	13732.199219
9412.630979	0.856534	0.438863	368.309814
9412.631846	1.311844	0.438863	1505.678955
9412.632914	1.326321	0.438863	2922.189453
9412.633811	1.298976	0.438863	4087.370605
9412.634690	1.270887	0.438863	5204.480469
9412.635619	1.242166	0.438863	6358.452148
9412.636622	1.212422	0.438863	7574.511230
9412.637496	1.186882	0.438863	8611.846680
9412.638377	1.161577	0.438863	9635.196289
9412.639501	1.133555	0.438863	10909.311523
9412.640388	1.116013	0.438863	11899.214844
9412.641256	1.061682	0.438863	12820.754883
9412.642143	0.253795	0.438863	13045.871094
9412.643187	0.083925	0.438863	13133.488281
9412.644082	0.083881	0.438863	13208.561523
9412.644958	0.083969	0.438863	13282.118164
9412.645953	0.083928	0.438863	13365.626953
9412.646874	0.083914	0.438863	13442.911133
9412.647790	0.083928	0.438863	13519.789062
9412.648656	0.083906	0.438863	13592.452148
9412.649690	0.083906	0.438863	13679.210937
9412.650568	0.083848	0.438863	13752.829102
9413.859782	0.864034	0.381395	374.990936
9413.860666	1.314291	0.381395	1536.823975
9413.861533	1.329412	0.381395	2689.423828
9413.862658	1.298210	0.381395	4149.910645
9413.863568	1.268859	0.381395	5304.571777
9413.864438	1.241840	0.381395	6384.972168
9413.865522	1.209869	0.381395	7696.470703
9413.866504	1.181495	0.381395	8856.699219
9413.867381	1.157051	0.381395	9871.432617
9413.868259	1.133434	0.381395	10866.587891
9413.869353	1.112538	0.381395	12083.704102
9413.870242	0.950065	0.381395	12928.311523
9413.871105	0.164989	0.381395	13070.697266
9413.872138	0.083899	0.381395	13157.365234
9413.873106	0.083844	0.381395	13238.526367
9413.874028	0.083917	0.381395	13315.898437
9413.874904	0.083947	0.381395	13389.435547
9413.875993	0.083965	0.381395	13480.873047
9413.876906	0.083899	0.381395	13557.472656
9413.877772	0.083925	0.381395	13630.151367
9413.878833	0.083829	0.381395	13719.094727
9413.879815	0.083958	0.381395	13801.541016
9414.696377	0.855128	0.448192	364.284607
9414.697368	1.319506	0.448192	1671.914551
9414.698296	1.326812	0.448192	2903.195801
9414.699179	1.300144	0.448192	4051.223145
9414.700086	1.271638	0.448192	5204.599121
9414.701045	1.241938	0.448192	6395.618164
9414.701974	1.213630	0.448192	7523.080566
9414.702855	1.188171	0.448192	8569.859375
9414.703766	1.162255	0.448192	9628.673828
9414.704736	1.136656	0.448192	10731.230469
9414.705665	1.118368	0.448192	11770.194336
9414.706543	1.086453	0.448192	12724.099609
9414.707517	0.297312	0.448192	13013.681641
9414.708444	0.084646	0.448192	13092.148437
9414.709321	0.083914	0.448192	13165.740234
9414.710270	0.083928	0.448192	13245.387695
9414.711216	0.083976	0.448192	13324.829102
9414.712138	0.083969	0.448192	13402.248047
9414.712996	0.083903	0.448192	13474.236328
9414.713966	0.083870	0.448192	13555.589844
9414.714915	0.083895	0.448192	13635.206055
9414.715794	0.083976	0.448192	13709.020508
9415.924160	0.855374	0.384094	367.810608
9415.925033	1.312639	0.384094	1513.744629
9415.925983	1.329280	0.384094	2776.560547
9415.926915	1.301748	0.384094	3989.789551
9415.927842	1.272297	0.384094	5169.208984
9415.928714	1.245011	0.384094	6254.858398
9415.929704	1.215472	0.384094	7458.176270
9415.930638	1.188025	0.384094	8567.791016
9415.931562	1.162775	0.384094	9642.195312
9415.932426	1.138832	0.384094	10626.146484
9415.933387	1.119104	0.384094	11701.605469
9415.934351	1.084893	0.384094	12747.441406
9415.935251	0.306588	0.384094	13023.371094
9415.936160	0.085635	0.384094	13101.212891
9415.937122	0.083972	0.384094	13181.994141
9415.938007	0.083990	0.384094	13256.326172
9415.938868	0.083936	0.384094	13328.594727
9415.939884	0.084001	0.384094	13413.940430
9415.940841	0.083917	0.384094	13494.249023
9415.941726	0.083939	0.384094	13568.535156
9415.942656	0.083979	0.384094	13646.635742
9415.943616	0.083950	0.384094	13727.227539
9416.761873	0.918106	0.452821	466.397614
9416.762844	1.325651	0.452821	1753.604370
9416.763714	1.326544	0.452821	2907.697754
9416.764784	1.293728	0.452821	4291.986816
9416.765839	1.260670	0.452821	5621.994141
9416.766733	1.233073	0.452821	6724.360840
9416.767669	1.205222	0.452821	7852.448730
9416.768734	1.174969	0.452821	9103.791016
9416.769683	1.149173	0.452821	10194.356445
9416.770550	1.127816	0.452821	11172.172852
9416.771622	1.105232	0.452821	12356.981445
9416.772644	0.567968	0.452821	12937.444336
9416.773528	0.091721	0.452821	13018.525391
9416.774507	0.083873	0.452821	13100.637695
9416.775569	0.083895	0.452821	13189.734375
9416.776471	0.083987	0.452821	13265.490234
9416.777326	0.083888	0.452821	13337.214844
9416.778398	0.083983	0.452821	13427.245117
9416.779402	0.083862	0.452821	13511.443359
9416.780277	0.083954	0.452821	13584.903320
9416.781261	0.083979	0.452821	13667.539062
9416.782345	0.083862	0.452821	13758.445312
9417.988551	0.862390	0.387087	374.277313
9417.989433	1.314163	0.387087	1533.368774
9417.990353	1.329401	0.387087	2756.417480
9417.991311	1.301470	0.387087	4003.225586
9417.992239	1.271777	0.387087	5183.435059
9417.993107	1.244612	0.387087	6263.758301
9417.994071	1.216256	0.387087	7436.229004
9417.994990	1.188776	0.387087	8528.713867
9417.995926	1.163394	0.387087	9617.650391
9417.996790	1.139128	0.387087	10601.857422
9417.997769	1.119269	0.387087	11697.621094
9417.998699	1.094729	0.387087	12715.718750
9417.999589	0.347732	0.387087	13025.200195
9418.000566	0.085276	0.387087	13108.514648
9418.001510	0.083899	0.387087	13187.714844
9418.002400	0.083979	0.387087	13262.457031
9418.003309	0.083925	0.387087	13338.744141
9418.004250	0.083873	0.387087	13417.668945
9418.005181	0.083914	0.387087	13495.792969
9418.006056	0.083947	0.387087	13569.246094
9418.006969	0.083862	0.387087	13645.812500
9418.007920	0.083906	0.387087	13725.607422
9418.829272	0.879844	0.462191	385.371552
9418.830163	1.315785	0.462191	1557.735962
9418.831090	1.328500	0.462191	2789.255371
9418.831959	1.301788	0.462191	3920.509277
9418.832971	1.270576	0.462191	5206.332031
9418.833911	1.241668	0.462191	6373.499512
9418.834793	1.215117	0.462191	7445.232910
9418.835728	1.188380	0.462191	8556.368164
9418.836681	1.162101	0.462191	9663.850586
9418.837611	1.137081	0.462191	10721.335937
9418.838477	1.119624	0.462191	11690.930664
9418.839408	1.092982	0.462191	12708.497070
9418.840352	0.307042	0.462191	12998.344727
9418.841242	0.085177	0.462191	13074.152344
9418.842395	0.083807	0.462191	13170.782227
9418.843296	0.083954	0.462191	13246.424805
9418.844201	0.083906	0.462191	13322.360352
9418.845079	0.083917	0.462191	13396.040039
9418.846081	0.083840	0.462191	13480.047852
9418.846994	0.083859	0.462191	13556.610352
9418.847909	0.083870	0.462191	13633.350586
9418.848774	0.083895	0.462191	13705.919922
9420.052018	0.940844	0.391333	503.351288
9420.052910	1.323834	0.391333	1684.211426
9420.053849	1.326086	0.391333	2929.406738
9420.054721	1.298123	0.391333	4061.369629
9420.055784	1.265749	0.391333	5406.861328
9420.056690	1.237914	0.391333	6528.411133
9420.057573	1.211536	0.391333	7598.197266
9420.058576	1.183290	0.391333	8785.037109
9420.059521	1.156586	0.391333	9878.010742
9420.060452	1.132507	0.391333	10932.375000
9420.061324	1.115211	0.391333	11904.838867
9420.062359	0.947626	0.391333	12885.631836
9420.063249	0.161927	0.391333	13029.747070
9420.064112	0.083917	0.391333	13102.167969
9420.065086	0.083976	0.391333	13183.959961
9420.066024	0.083932	0.391333	13262.688477
9420.066938	0.084020	0.391333	13339.482422
9420.067813	0.083906	0.391333	13412.900391
9420.068837	0.083939	0.391333	13498.854492
9420.069729	0.083928	0.391333	13573.718750
9420.070603	0.083910	0.391333	13647.055664
9420.071507	0.083899	0.391333	13722.900391
9420.895692	0.870022	0.467504	381.939636
9420.896566	1.313361	0.467504	1529.816895
9420.897552	1.327306	0.467504	2838.540527
9420.898607	1.296068	0.467504	4205.892578
9420.899512	1.267086	0.467504	5352.605469
9420.900379	1.238829	0.467504	6426.670410
9420.901500	1.206709	0.467504	7779.391113
9420.902466	1.179562	0.467504	8918.847656
9420.903342	1.155385	0.467504	9930.964844
9420.904394	1.129094	0.467504	11118.771484
9420.905433	1.107312	0.467504	12269.268555
9420.906340	0.775789	0.467504	12972.909180
9420.907287	0.110665	0.467504	13077.708984
9420.908338	0.083958	0.467504	13165.948242
9420.909279	0.084038	0.467504	13245.028320
9420.910142	0.084031	0.467504	13317.546875
9420.911197	0.084108	0.467504	13406.280273
9420.912209	0.084027	0.467504	13491.315430
9420.913089	0.083961	0.467504	13565.201172
9420.914072	0.084060	0.467504	13647.832031
9420.915124	0.083983	0.467504	13736.182617
9420.916040	0.083969	0.467504	13813.097656
9422.116343	0.874761	0.391615	414.636597
9422.117280	1.319872	0.391615	1651.356445
9422.118149	1.328207	0.391615	2805.568115
9422.119023	1.301180	0.391615	3942.799805
9422.120002	1.270660	0.391615	5186.776367
9422.120960	1.241375	0.391615	6376.013184
9422.121849	1.214751	0.391615	7455.926758
9422.122772	1.188116	0.391615	8552.558594
9422.123735	1.161508	0.391615	9671.090820
9422.124664	1.136656	0.391615	10727.044922
9422.125534	1.119185	0.391615	11700.735352
9422.126509	1.082692	0.391615	12756.359375
9422.127455	0.273076	0.391615	13014.689453
9422.128366	0.084661	0.391615	13091.815430
9422.129224	0.083844	0.391615	13163.753906
9422.130191	0.083829	0.391615	13244.816406
9422.131137	0.083756	0.391615	13324.049805
9422.132026	0.083877	0.391615	13398.616211
9422.132941	0.083939	0.391615	13475.420898
9422.133887	0.083866	0.391615	13554.757812
9422.134790	0.083877	0.391615	13630.499023
9422.135681	0.083873	0.391615	13705.230469
9422.962154	0.893899	0.476238	404.936218
9422.963040	1.316089	0.476238	1570.990967
9422.963912	1.329467	0.476238	2730.285645
9422.964930	1.300496	0.476238	4054.190186
9422.965833	1.270265	0.476238	5201.239258
9422.966760	1.242004	0.476238	6352.577148
9422.967636	1.215011	0.476238	7416.926758
9422.968677	1.185817	0.476238	8651.362305
9422.969572	1.160845	0.476238	9690.318359
9422.970455	1.137345	0.476238	10694.593750
9422.971426	1.117815	0.476238	11779.992187
9422.972383	1.062096	0.476238	12796.417969
9422.973304	0.247954	0.476238	13024.783203
9422.974170	0.084741	0.476238	13098.168945
9422.975203	0.083826	0.476238	13184.760742
9422.976086	0.083917	0.476238	13258.859375
9422.976949	0.083859	0.476238	13331.229492
9422.977851	0.083936	0.476238	13406.939453
9422.978875	0.083888	0.476238	13492.840820
9422.979813	0.083859	0.476238	13571.500000
9422.980685	0.083906	0.476238	13644.666016
9422.981766	0.083903	0.476238	13735.364258
9424.180742	0.887164	0.398382	445.356476
9424.181776	1.326881	0.398382	1817.351440
9424.182661	1.325002	0.398382	2989.978516
9424.183524	1.298093	0.398382	4110.232910
9424.184590	1.264838	0.398382	5458.549805
9424.185525	1.235526	0.398382	6613.766602
9424.186408	1.209192	0.398382	7681.482910
9424.187339	1.182671	0.398382	8782.549805
9424.188392	1.154000	0.398382	9997.711914
9424.189291	1.130812	0.398382	11014.311523
9424.190162	1.113937	0.398382	11984.550781
9424.191206	0.855619	0.398382	12877.816406
9424.192180	0.116327	0.398382	12991.119141
9424.193056	0.083840	0.398382	13064.563477
9424.193961	0.083917	0.398382	13140.508789
9424.195038	0.083950	0.398382	13230.922852
9424.195917	0.083943	0.398382	13304.708984
9424.196777	0.083950	0.398382	13376.906250
9424.197816	0.083976	0.398382	13464.157227
9424.198770	0.083859	0.398382	13544.158203
9424.199636	0.083895	0.398382	13616.811523
9424.200502	0.083972	0.398382	13689.531250
9425.027542	0.884172	0.478642	396.109222
9425.028414	1.313976	0.478642	1541.896118
9425.029353	1.328196	0.478642	2789.072021
9425.030321	1.300049	0.478642	4047.519287
9425.031198	1.271686	0.478642	5162.787598
9425.032110	1.243242	0.478642	6296.624512
9425.033076	1.214498	0.478642	7469.830078
9425.034011	1.187380	0.478642	8580.030273
9425.034892	1.162885	0.478642	9604.531250
9425.035829	1.137946	0.478642	10670.786133
9425.036767	1.118716	0.478642	11720.141602
9425.037697	1.094319	0.478642	12737.858398
9425.038566	0.344491	0.478642	13037.220703
9425.039544	0.085148	0.478642	13120.495117
9425.040495	0.083903	0.478642	13200.286133
9425.041389	0.083983	0.478642	13275.367187
9425.042316	0.083859	0.478642	13353.104492
9425.043240	0.083833	0.478642	13430.566406
9425.044164	0.083939	0.478642	13508.125977
9425.045058	0.083862	0.478642	13583.098633
9425.045970	0.083914	0.478642	13659.627930
9425.046928	0.083925	0.478642	13740.027344
9426.246099	0.882843	0.403136	391.099457
9426.247021	1.317649	0.403136	1605.971802
9426.247891	1.328405	0.403136	2761.683594
9426.248893	1.299943	0.403136	4064.226074
9426.249825	1.270302	0.403136	5248.146973
9426.250696	1.243001	0.403136	6330.800293
9426.251613	1.215458	0.403136	7445.375000
9426.252575	1.187732	0.403136	8587.972656
9426.253508	1.161819	0.403136	9671.949219
9426.254393	1.138107	0.403136	10679.173828
9426.255319	1.118822	0.403136	11715.203125
9426.256284	1.082366	0.403136	12759.685547
9426.257217	0.280261	0.403136	13021.168945
9426.258077	0.085129	0.403136	13094.379883
9426.259052	0.083859	0.403136	13176.141602
9426.259983	0.083906	0.403136	13254.258789
9426.260840	0.083870	0.403136	13326.134766
9426.261806	0.083829	0.403136	13407.114258
9426.262757	0.083840	0.403136	13486.846680
9426.263673	0.083921	0.403136	13563.717773
9426.264548	0.083914	0.403136	13637.142578
9426.265509	0.083840	0.403136	13717.712891
9427.095013	0.897367	0.486884	415.480896
9427.095896	1.316199	0.486884	1577.684326
9427.096895	1.326368	0.486884	2902.726562
9427.097949	1.294856	0.486884	4267.504883
9427.098844	1.265815	0.486884	5400.409668
9427.099708	1.238247	0.486884	6470.254883
9427.100809	1.206548	0.486884	7798.664062
9427.101804	1.178156	0.486884	8970.928711
9427.102685	1.153901	0.486884	9987.515625
9427.103718	1.129010	0.486884	11153.783203
9427.104769	1.106715	0.486884	12316.940430
9427.105657	0.757028	0.486884	12989.180664
9427.106566	0.108464	0.486884	13087.774414
9427.107654	0.083903	0.486884	13179.060547
9427.108591	0.083906	0.486884	13257.680664
9427.109461	0.083939	0.486884	13330.708008
9427.110490	0.083914	0.486884	13417.054687
9427.111515	0.083921	0.486884	13503.073242
9427.112402	0.083881	0.486884	13577.475586
9427.113266	0.083943	0.486884	13650.001953
9427.114321	0.084067	0.486884	13738.693359
9427.115283	0.083972	0.486884	13819.474609
9428.309441	0.862932	0.406950	372.786682
9428.310522	1.324753	0.406950	1804.845215
9428.311526	1.322201	0.406950	3132.334961
9428.312416	1.294314	0.406950	4284.274414
9428.313396	1.263647	0.406950	5522.648926
9428.314447	1.231480	0.406950	6816.934082
9428.315359	1.203988	0.406950	7914.971191
9428.316223	1.178547	0.406950	8933.236328
9428.317316	1.149778	0.406950	10189.943359
9428.318318	1.126003	0.406950	11318.199219
9428.319203	1.106946	0.406950	12297.846680
9428.320217	0.653353	0.406950	12960.346680
9428.321263	0.090198	0.406950	13054.693359
9428.322131	0.083961	0.406950	13127.571289
9428.323009	0.083972	0.406950	13201.298828
9428.324104	0.084005	0.406950	13293.284180
9428.325068	0.083833	0.406950	13374.099609
9428.325936	0.083925	0.406950	13446.946289
9428.326961	0.084056	0.406950	13533.104492
9428.327993	0.084020	0.406950	13619.812500
9428.328882	0.083958	0.406950	13694.451172
9428.329801	0.083928	0.406950	13771.581055
9429.160383	0.853755	0.492878	366.260834
9429.161252	1.311665	0.492878	1506.097778
9429.162237	1.327819	0.492878	2813.999023
9429.163205	1.299331	0.492878	4071.751465
9429.164098	1.270704	0.492878	5206.490234
9429.165017	1.242631	0.492878	6348.467773
9429.165988	1.213912	0.492878	7527.176758
9429.166877	1.187457	0.492878	8582.826172
9429.167765	1.162720	0.492878	9615.321289
9429.168695	1.137213	0.492878	10672.929687
9429.169648	1.118445	0.492878	11738.807617
9429.170546	1.095732	0.492878	12722.775391
9429.171467	0.331707	0.492878	13028.277344
9429.172434	0.084987	0.492878	13110.458984
9429.173348	0.084005	0.492878	13187.239258
9429.174219	0.083983	0.492878	13260.388672
9429.175193	0.083976	0.492878	13342.180664
9429.176111	0.083925	0.492878	13419.223633
9429.177039	0.084005	0.492878	13497.180664
9429.177896	0.083936	0.492878	13569.113281
9429.178872	0.083998	0.492878	13651.094727
9429.179818	0.083917	0.492878	13730.480469
9430.373903	0.898165	0.410064	458.962463
9430.374877	1.325760	0.410064	1750.253174
9430.375787	1.325618	0.410064	2956.565430
9430.376667	1.298452	0.410064	4099.203125
9430.377714	1.265808	0.410064	5424.503906
9430.378614	1.237720	0.410064	6538.451660
9430.379498	1.211118	0.410064	7609.080078
9430.380387	1.184733	0.410064	8662.307617
9430.381444	1.156549	0.410064	9884.780273
9430.382338	1.132892	0.410064	10897.585937
9430.383205	1.116255	0.410064	11865.378906
9430.384201	0.975396	0.410064	12836.873047
9430.385126	0.173903	0.410064	12997.733398
9430.386049	0.083969	0.410064	13075.236328
9430.386923	0.083925	0.410064	13148.585937
9430.387966	0.083921	0.410064	13236.115234
9430.388855	0.083866	0.410064	13310.671875
9430.389727	0.083895	0.410064	13383.828125
9430.390698	0.083969	0.410064	13465.361328
9430.391650	0.083862	0.410064	13545.198242
9430.392573	0.083903	0.410064	13622.640625
9430.393439	0.083932	0.410064	13695.325195
9431.226897	0.922742	0.498796	459.525330
9431.227908	1.327009	0.498796	1801.131836
9431.228808	1.324581	0.498796	2993.255127
9431.229791	1.294413	0.498796	4265.663086
9431.230856	1.260817	0.498796	5608.432617
9431.231778	1.232252	0.498796	6744.569336
9431.232649	1.205244	0.498796	7794.336914
9431.233752	1.174827	0.498796	9090.170898
9431.234732	1.148434	0.498796	10215.635742
9431.235603	1.127428	0.498796	11197.625000
9431.236660	1.104935	0.498796	12365.541992
9431.237708	0.539949	0.498796	12931.408203
9431.238606	0.089469	0.498796	13011.750977
9431.239541	0.083859	0.498796	13090.159180
9431.240621	0.083958	0.498796	13180.833008
9431.241553	0.083844	0.498796	13258.975586
9431.242413	0.083899	0.498796	13331.128906
9431.243469	0.083976	0.498796	13419.807617
9431.244474	0.083811	0.498796	13504.038086
9431.245358	0.083877	0.498796	13578.185547
9431.246322	0.083906	0.498796	13659.071289
9431.247379	0.083961	0.498796	13747.818359
9432.440261	0.859321	0.413670	372.945435
9432.441138	1.313101	0.413670	1524.534668
9432.442054	1.329122	0.413670	2742.010742
9432.443021	1.301235	0.413670	4000.305420
9432.443948	1.271613	0.413670	5179.090332
9432.444816	1.244341	0.413670	6259.178223
9432.445789	1.216022	0.413670	7442.367187
9432.446690	1.188651	0.413670	8513.341797
9432.447615	1.163192	0.413670	9589.294922
9432.448498	1.139213	0.413670	10595.219727
9432.449473	1.119397	0.413670	11686.631836
9432.450428	1.090726	0.413670	12728.275391
9432.451326	0.326539	0.413670	13021.507812
9432.452237	0.085814	0.413670	13099.684570
9432.453205	0.083804	0.413670	13180.806641
9432.454129	0.083921	0.413670	13258.349609
9432.454994	0.083932	0.413670	13330.951172
9432.455939	0.083873	0.413670	13410.211914
9432.456880	0.083848	0.413670	13489.112305
9432.457796	0.083983	0.413670	13566.041016
9432.458668	0.083969	0.413670	13639.261719
9432.459626	0.083906	0.413670	13719.643555
9433.292230	0.858636	0.505777	370.930939
9433.293110	1.313192	0.505777	1526.540039
9433.294069	1.328181	0.505777	2800.265625
9433.295009	1.299456	0.505777	4021.753906
9433.295941	1.270137	0.505777	5205.521484
9433.296824	1.243066	0.505777	6303.148926
9433.297738	1.215388	0.505777	7414.013672
9433.298703	1.187677	0.505777	8560.122070
9433.299635	1.161899	0.505777	9643.012695
9433.300504	1.138268	0.505777	10632.167969
9433.301473	1.118829	0.505777	11716.313477
9433.302431	1.087346	0.505777	12757.991211
9433.303305	0.316534	0.505777	13034.642578
9433.304217	0.085719	0.505777	13112.818359
9433.305149	0.083921	0.505777	13191.032227
9433.306101	0.083851	0.505777	13270.858398
9433.306995	0.083998	0.505777	13345.952148
9433.307907	0.083987	0.505777	13422.547852
9433.308870	0.083873	0.505777	13503.317383
9433.309756	0.083947	0.505777	13577.694336
9433.310721	0.083892	0.505777	13658.649414
9433.311639	0.083862	0.505777	13735.634766
9434.504647	0.863298	0.416961	374.671478
9434.505564	1.316711	0.416961	1582.095825
9434.506442	1.328753	0.416961	2748.740479
9434.507489	1.298437	0.416961	4108.204590
9434.508390	1.269620	0.416961	5252.132324
9434.509277	1.242030	0.416961	6353.812988
9434.510257	1.213356	0.416961	7542.901367
9434.511216	1.185245	0.416961	8679.551758
9434.512139	1.159768	0.416961	9750.017578
9434.513008	1.136433	0.416961	10737.578125
9434.514051	1.116013	0.416961	11901.580078
9434.514938	1.054438	0.416961	12836.867187
9434.515807	0.248229	0.416961	13052.578125
9434.516731	0.084840	0.416961	13130.970703
9434.517732	0.083892	0.416961	13214.946289
9434.518640	0.083870	0.416961	13291.099609
9434.519532	0.083899	0.416961	13365.937500
9434.520529	0.083881	0.416961	13449.566406
9434.521449	0.083848	0.416961	13526.706055
9434.522376	0.083862	0.416961	13604.446289
9434.523240	0.083884	0.416961	13676.921875
9434.524280	0.083895	0.416961	13764.172852
9435.357637	0.859384	0.505922	372.972473
9435.358512	1.312632	0.505922	1521.525391
9435.359519	1.326661	0.505922	2857.473389
9435.360583	1.295295	0.505922	4235.667480
9435.361479	1.266460	0.505922	5370.415527
9435.362391	1.237837	0.505922	6499.322754
9435.363483	1.205750	0.505922	7816.000977
9435.364430	1.178796	0.505922	8932.321289
9435.365305	1.154608	0.505922	9942.603516
9435.366360	1.128772	0.505922	11133.458008
9435.367384	1.107037	0.505922	12267.064453
9435.368292	0.775422	0.505922	12971.148437
9435.369251	0.110402	0.505922	13077.023437
9435.370291	0.083881	0.505922	13164.258789
9435.371213	0.083972	0.505922	13241.680664
9435.372076	0.083899	0.505922	13314.084961
9435.373131	0.083979	0.505922	13402.683594
9435.374143	0.083881	0.505922	13487.570312
9435.375019	0.083979	0.505922	13561.136719
9435.376000	0.083994	0.505922	13643.535156
9435.377040	0.083921	0.505922	13730.812500
9435.377949	0.083936	0.505922	13807.110352
9436.571062	0.852905	0.418492	358.220215
9436.572023	1.317451	0.418492	1624.290894
9436.572960	1.327251	0.418492	2867.925049
9436.573847	1.300408	0.418492	4021.386719
9436.574767	1.271865	0.418492	5191.502930
9436.575726	1.241448	0.418492	6382.051270
9436.576666	1.213239	0.418492	7522.495605
9436.577558	1.187688	0.418492	8581.913086
9436.578483	1.161929	0.418492	9656.697266
9436.579446	1.136675	0.418492	10751.315430
9436.580330	1.118954	0.418492	11740.470703
9436.581244	1.080864	0.418492	12728.380859
9436.582212	0.285472	0.418492	13004.717773
9436.583138	0.084540	0.418492	13083.001953
9436.584022	0.083917	0.418492	13157.184570
9436.584938	0.083881	0.418492	13234.019531
9436.585895	0.083829	0.418492	13314.244141
9436.586813	0.083862	0.418492	13391.229492
9436.587677	0.083837	0.418492	13463.664062
9436.588646	0.083881	0.418492	13544.944336
9436.589603	0.083899	0.418492	13625.235352
9436.590487	0.083950	0.418492	13699.447266
9437.423101	0.880327	0.513330	433.120972
9437.424090	1.324369	0.513330	1742.921875
9437.425008	1.325013	0.513330	2959.284180
9437.425879	1.298181	0.513330	4090.000000
9437.426893	1.266357	0.513330	5374.086426
9437.427810	1.237416	0.513330	6508.796875
9437.428736	1.210056	0.513330	7629.308594
9437.429605	1.184491	0.513330	8658.630859
9437.430630	1.156835	0.513330	9844.386719
9437.431529	1.133232	0.513330	10863.163086
9437.432411	1.116361	0.513330	11847.793945
9437.433416	0.986019	0.513330	12838.743164
9437.434363	0.173467	0.513330	13003.016602
9437.435289	0.083807	0.513330	13080.622070
9437.436151	0.083917	0.513330	13152.958984
9437.437196	0.083888	0.513330	13240.622070
9437.438081	0.083837	0.513330	13314.817383
9437.438946	0.083837	0.513330	13387.335937
9437.439905	0.083892	0.513330	13467.788086
9437.440862	0.083892	0.513330	13548.072266
9437.441767	0.083932	0.513330	13624.030273
9437.442645	0.083855	0.513330	13697.655273
9438.635548	0.895133	0.420743	467.259460
9438.636606	1.327526	0.420743	1871.781494
9438.637537	1.322131	0.420743	3102.685791
9438.638403	1.294486	0.420743	4223.710937
9438.639467	1.261227	0.420743	5565.656250
9438.640481	1.229857	0.420743	6812.731445
9438.641376	1.203571	0.420743	7889.927246
9438.642359	1.175951	0.420743	9045.886719
9438.643426	1.146921	0.420743	10269.652344
9438.644343	1.125538	0.420743	11301.771484
9438.645215	1.106012	0.420743	12266.213867
9438.646312	0.566635	0.420743	12887.811523
9438.647275	0.088195	0.420743	12972.743164
9438.648156	0.083833	0.420743	13046.599609
9438.649152	0.083928	0.420743	13130.192383
9438.650222	0.083881	0.420743	13219.944336
9438.651110	0.083873	0.420743	13294.423828
9438.651988	0.083866	0.420743	13368.058594
9438.653084	0.083917	0.420743	13460.032227
9438.654041	0.083851	0.420743	13540.278320
9438.654902	0.083862	0.420743	13612.483398
9438.655936	0.083881	0.420743	13699.215820
9439.488502	0.906958	0.527567	431.712006
9439.489380	1.316580	0.527567	1587.668945
9439.490241	1.328628	0.527567	2731.617676
9439.491201	1.300605	0.527567	3980.198730
9439.492163	1.270364	0.527567	5202.288574
9439.493057	1.242623	0.527567	6313.193848
9439.493977	1.215205	0.527567	7431.182617
9439.494934	1.187549	0.527567	8567.666992
9439.495869	1.161566	0.527567	9653.731445
9439.496752	1.137949	0.527567	10658.541016
9439.497722	1.118189	0.527567	11743.183594
9439.498672	1.074331	0.527567	12763.797852
9439.499614	0.262595	0.527567	13011.162109
9439.500475	0.084727	0.527567	13084.111328
9439.501444	0.083859	0.527567	13165.370117
9439.502401	0.083932	0.527567	13245.693359
9439.503270	0.083899	0.527567	13318.601562
9439.504182	0.083862	0.527567	13395.083984
9439.505136	0.083818	0.527567	13475.046875
9439.506061	0.083910	0.527567	13552.663086
9439.506951	0.083877	0.527567	13627.313477
9439.507861	0.083815	0.527567	13703.584961
9440.701907	0.862332	0.423628	378.563568
9440.702775	1.312643	0.423628	1517.937500
9440.703728	1.327797	0.423628	2783.327637
9440.704657	1.300294	0.423628	3991.300781
9440.705572	1.271583	0.423628	5154.799805
9440.706446	1.243865	0.423628	6241.937500
9440.707428	1.214857	0.423628	7434.927246
9440.708390	1.187362	0.423628	8577.169922
9440.709290	1.162053	0.423628	9623.017578
9440.710202	1.138169	0.423628	10661.027344
9440.711162	1.118815	0.423628	11735.089844
9440.712056	1.096058	0.423628	12714.965820
9440.712943	0.351603	0.423628	13026.837891
9440.713947	0.084712	0.423628	13111.888672
9440.714863	0.083862	0.423628	13188.707031
9440.715732	0.083965	0.423628	13261.672852
9440.716681	0.083943	0.423628	13341.334961
9440.717604	0.084005	0.423628	13418.872070
9440.718555	0.083928	0.423628	13498.687500
9440.719441	0.083969	0.423628	13573.083984
9440.720349	0.083910	0.423628	13649.274414
9440.721308	0.083899	0.423628	13729.733398
9441.554880	0.862548	0.538246	367.445282
9441.555978	1.324541	0.538246	1821.791260
9441.556972	1.321432	0.538246	3135.294434
9441.557848	1.294182	0.538246	4268.998047
9441.558846	1.263065	0.538246	5529.537109
9441.559914	1.230571	0.538246	6843.787109
9441.560803	1.203508	0.538246	7913.706055
9441.561674	1.177756	0.538246	8939.532227
9441.562775	1.148958	0.538246	10204.534180
9441.563738	1.126238	0.538246	11289.101562
9441.564604	1.107590	0.538246	12248.274414
9441.565632	0.663409	0.538246	12930.259766
9441.566701	0.090428	0.538246	13026.927734
9441.567567	0.083789	0.538246	13099.489258
9441.568492	0.083976	0.538246	13177.166992
9441.569556	0.083950	0.538246	13266.490234
9441.570500	0.083936	0.538246	13345.725586
9441.571368	0.083972	0.538246	13418.613281
9441.572402	0.084012	0.538246	13505.482422
9441.573432	0.083899	0.538246	13591.898437
9441.574324	0.083903	0.538246	13666.739258
9441.575278	0.084078	0.538246	13746.950195
9442.768370	0.873614	0.425936	406.230743
9442.769257	1.316312	0.425936	1573.799683
9442.770124	1.329269	0.425936	2726.275879
9442.771046	1.301473	0.425936	3926.234375
9442.772011	1.270880	0.425936	5152.633789
9442.772946	1.242316	0.425936	6314.199219
9442.773832	1.215366	0.425936	7391.013672
9442.774800	1.187926	0.425936	8540.925781
9442.775759	1.161658	0.425936	9654.955078
9442.776654	1.137356	0.425936	10672.888672
9442.777528	1.119287	0.425936	11651.145508
9442.778507	1.086811	0.425936	12715.133789
9442.779448	0.296301	0.425936	12993.953125
9442.780308	0.085247	0.425936	13067.265625
9442.781284	0.083818	0.425936	13149.072266
9442.782236	0.083870	0.425936	13228.916016
9442.783106	0.083855	0.425936	13301.870117
9442.783988	0.083826	0.425936	13375.804687
9442.784941	0.083892	0.425936	13455.752930
9442.785899	0.083877	0.425936	13536.107422
9442.786785	0.083965	0.425936	13610.500000
9442.787698	0.083855	0.425936	13687.059570
9443.619358	0.909207	0.540683	478.242645
9443.620320	1.325303	0.540683	1753.183838
9443.621252	1.324303	0.540683	2987.434082
9443.622120	1.297412	0.540683	4113.587891
9443.623161	1.265017	0.540683	5430.470703
9443.624064	1.236925	0.540683	6547.414062
9443.624940	1.210466	0.540683	7607.782227
9443.625889	1.183488	0.540683	8730.912109
9443.626872	1.156545	0.540683	9867.795898
9443.627801	1.132438	0.540683	10919.830078
9443.628662	1.115629	0.540683	11880.386719
9443.629710	0.941821	0.540683	12867.415039
9443.630622	0.155603	0.540683	13009.325195
9443.631493	0.083851	0.540683	13082.359375
9443.632375	0.083994	0.540683	13156.442383
9443.633417	0.083932	0.540683	13243.899414
9443.634308	0.083925	0.540683	13318.675781
9443.635180	0.083943	0.540683	13391.874023
9443.636186	0.083936	0.540683	13476.313477
9443.637103	0.083859	0.540683	13553.211914
9443.638019	0.083947	0.540683	13630.107422
9443.638881	0.083855	0.540683	13702.390625
9444.832792	0.918061	0.427777	462.703003
9444.833698	1.321871	0.427777	1660.318359
9444.834568	1.326943	0.427777	2814.759033
9444.835673	1.294680	0.427777	4245.380859
9444.836669	1.262886	0.427777	5503.214844
9444.837552	1.235757	0.427777	6594.388184
9444.838577	1.205874	0.427777	7830.409180
9444.839623	1.176021	0.427777	9060.526367
9444.840512	1.151386	0.427777	10084.108398
9444.841404	1.128955	0.427777	11091.136719
9444.842507	1.106078	0.427777	12311.140625
9444.843468	0.678519	0.427777	12963.197266
9444.844325	0.099661	0.427777	13048.606445
9444.845363	0.083895	0.427777	13135.689453
9444.846398	0.083899	0.427777	13222.524414
9444.847291	0.083895	0.427777	13297.443359
9444.848253	0.083895	0.427777	13378.150391
9444.849300	0.083979	0.427777	13466.077148
9444.850234	0.083807	0.427777	13544.353516
9444.851096	0.083925	0.427777	13616.696289
9444.852154	0.083921	0.427777	13705.484375
9444.853157	0.083855	0.427777	13789.590820
9445.685692	0.846112	0.541823	358.751526
9445.686622	1.312050	0.541823	1578.957520
9445.687557	1.327625	0.541823	2820.286621
9445.688477	1.300012	0.541823	4016.297852
9445.689354	1.272140	0.541823	5131.964844
9445.690289	1.243081	0.541823	6294.245605
9445.691263	1.214085	0.541823	7476.763672
9445.692193	1.187186	0.541823	8580.846680
9445.693055	1.162808	0.541823	9583.186523
9445.694006	1.137550	0.541823	10664.997070
9445.694972	1.118218	0.541823	11745.195312
9445.695875	1.092843	0.541823	12732.032227
9445.696791	0.333944	0.541823	13037.924805
9445.697727	0.084800	0.541823	13117.297852
9445.698640	0.083884	0.541823	13193.883789
9445.699507	0.083906	0.541823	13266.630859
9445.700475	0.083932	0.541823	13347.876953
9445.701432	0.083921	0.541823	13428.189453
9445.702315	0.083884	0.541823	13502.258789
9445.703244	0.083950	0.541823	13580.248047
9445.704186	0.083910	0.541823	13659.291016
9445.705110	0.083895	0.541823	13736.810547
9446.899269	0.959630	0.429163	534.513977
9446.900191	1.326024	0.429163	1757.108154
9446.901118	1.324742	0.429163	2985.144531
9446.901987	1.296830	0.429163	4112.089844
9446.903055	1.264113	0.429163	5462.162109
9446.903952	1.236471	0.429163	6571.276367
9446.904831	1.210268	0.429163	7635.102539
9446.905853	1.182048	0.429163	8843.156250
9446.906780	1.155520	0.429163	9914.323242
9446.907713	1.131658	0.429163	10970.160156
9446.908573	1.114398	0.429163	11928.542969
9446.909609	0.921969	0.429163	12883.703125
9446.910505	0.151128	0.429163	13019.113281
9446.911377	0.083815	0.429163	13092.199219
9446.912349	0.083969	0.429163	13173.816406
9446.913291	0.083910	0.429163	13252.859375
9446.914224	0.083877	0.429163	13331.116211
9446.915092	0.083873	0.429163	13403.917969
9446.916115	0.083785	0.429163	13489.630859
9446.917025	0.083829	0.429163	13565.916016
9446.917903	0.083848	0.429163	13639.534180
9446.918815	0.083895	0.429163	13716.046875
9447.751135	0.874460	0.539869	402.251801
9447.752227	1.326632	0.539869	1850.933960
9447.753174	1.322076	0.539869	3102.940430
9447.754044	1.294830	0.539869	4229.442871
9447.755086	1.261674	0.539869	5544.106445
9447.756127	1.230011	0.539869	6824.547852
9447.757024	1.203245	0.539869	7903.858398
9447.757977	1.176881	0.539869	9025.425781
9447.759046	1.147386	0.539869	10251.982422
9447.759986	1.125612	0.539869	11310.057617
9447.760855	1.106331	0.539869	12271.458984
9447.761943	0.590881	0.539869	12914.337891
9447.762935	0.088411	0.539869	13002.041016
9447.763822	0.083903	0.539869	13076.462891
9447.764804	0.084049	0.539869	13158.999023
9447.765846	0.084020	0.539869	13246.547852
9447.766754	0.083998	0.539869	13322.817383
9447.767610	0.083965	0.539869	13394.691406
9447.768703	0.084001	0.539869	13486.504883
9447.769698	0.083969	0.539869	13570.053711
9447.770571	0.084023	0.539869	13643.406250
9447.771564	0.084067	0.539869	13726.884766
9448.963569	0.897253	0.436611	429.784393
9448.964497	1.320736	0.436611	1655.427490
9448.965424	1.326628	0.436611	2885.211914
9448.966294	1.300089	0.436611	4016.289551
9448.967269	1.269822	0.436611	5254.365723
9448.968227	1.240309	0.436611	6442.581543
9448.969116	1.213271	0.436611	7521.179687
9448.970018	1.187435	0.436611	8592.246094
9448.970966	1.160805	0.436611	9692.688477
9448.971902	1.135573	0.436611	10755.583984
9448.972797	1.118317	0.436611	11756.477539
9448.973724	1.071068	0.436611	12749.357422
9448.974689	0.260288	0.436611	13000.535156
9448.975577	0.084525	0.436611	13075.593750
9448.976491	0.083804	0.436611	13152.190430
9448.977418	0.083921	0.436611	13229.985352
9448.978356	0.083862	0.436611	13308.648437
9448.979239	0.083928	0.436611	13382.756836
9448.980169	0.083866	0.436611	13460.751953
9448.981130	0.083881	0.436611	13541.361328
9448.982044	0.083939	0.436611	13618.082031
9448.982903	0.083936	0.436611	13690.182617
9449.819606	0.865898	0.544796	384.458893
9449.820474	1.313042	0.544796	1524.179321
9449.821341	1.329503	0.544796	2676.858398
9449.822382	1.299628	0.544796	4029.770752
9449.823298	1.270214	0.544796	5193.286621
9449.824175	1.243004	0.544796	6283.401367
9449.825039	1.215667	0.544796	7333.737305
9449.826112	1.186014	0.544796	8606.331055
9449.827015	1.160947	0.544796	9654.666016
9449.827896	1.137546	0.544796	10656.844727
9449.828919	1.116998	0.544796	11799.534180
9449.829860	1.053355	0.544796	12790.741211
9449.830785	0.237751	0.544796	13010.661133
9449.831644	0.084587	0.544796	13083.321289
9449.832692	0.083972	0.544796	13171.324219
9449.833564	0.083870	0.544796	13244.458984
9449.834440	0.083932	0.544796	13317.983398
9449.835414	0.083976	0.544796	13399.775391
9449.836364	0.083906	0.544796	13479.486328
9449.837284	0.083943	0.544796	13556.713867
9449.838149	0.083870	0.544796	13629.260742
9449.839175	0.083906	0.544796	13715.348633
9451.028997	0.904764	0.441550	452.382202
9451.029875	1.319128	0.441550	1610.576904
9451.030768	1.327119	0.441550	2795.694336
9451.031868	1.294977	0.441550	4220.168945
9451.032831	1.264537	0.441550	5437.918457
9451.033708	1.237364	0.441550	6523.086914
9451.034758	1.206108	0.441550	7789.500977
9451.035794	1.176896	0.441550	9008.764648
9451.036695	1.152133	0.441550	10046.835937
9451.037644	1.129120	0.441550	11118.371094
9451.038697	1.106601	0.441550	12283.622070
9451.039632	0.728503	0.441550	12964.772461
9451.040489	0.105531	0.441550	13055.212891
9451.041558	0.083837	0.441550	13144.833984
9451.042569	0.083906	0.441550	13229.663086
9451.043444	0.083914	0.441550	13303.087891
9451.044424	0.084023	0.441550	13385.430664
9451.045459	0.083965	0.441550	13472.333984
9451.046368	0.083892	0.441550	13548.591797
9451.047226	0.083939	0.441550	13620.611328
9451.048294	0.084012	0.441550	13710.336914
9451.049299	0.083877	0.441550	13794.632812
9451.887093	0.882656	0.550564	418.379089
9451.887977	1.316506	0.550564	1582.170654
9451.888838	1.328686	0.550564	2726.169678
9451.889807	1.300825	0.550564	3986.669434
9451.890747	1.270228	0.550564	5180.684082
9451.891670	1.241942	0.550564	6326.996582
9451.892538	1.215055	0.550564	7381.664062
9451.893511	1.187523	0.550564	8537.124023
9451.894465	1.161240	0.550564	9644.947266
9451.895362	1.137345	0.550564	10665.145508
9451.896281	1.118774	0.550564	11693.298828
9451.897251	1.086339	0.550564	12747.047852
9451.898146	0.308291	0.550564	13022.968750
9451.899078	0.085400	0.550564	13102.561523
9451.899983	0.083844	0.550564	13178.440430
9451.900938	0.083855	0.550564	13258.521484
9451.901824	0.083958	0.550564	13332.908203
9451.902744	0.083888	0.550564	13410.084961
9451.903707	0.083983	0.550564	13490.960937
9451.904628	0.083936	0.550564	13568.265625
9451.905504	0.083877	0.550564	13641.742187
9451.906460	0.083947	0.550564	13721.995117
9453.091395	0.942733	0.449751	531.701477
9453.092414	1.329247	0.449751	1886.204102
9453.093295	1.322999	0.449751	3051.766602
9453.094168	1.294856	0.449751	4182.175781
9453.095273	1.261011	0.449751	5575.592773
9453.096200	1.232530	0.449751	6718.148437
9453.097082	1.206262	0.449751	7782.071777
9453.098067	1.178679	0.449751	8943.070312
9453.099076	1.150646	0.449751	10104.072266
9453.099976	1.128563	0.449751	11119.779297
9453.100844	1.110414	0.449751	12083.618164
9453.101944	0.741156	0.449751	12898.889648
9453.102856	0.102979	0.449751	12992.805664
9453.103727	0.083826	0.449751	13065.817383
9453.104729	0.083954	0.449751	13149.939453
9453.105735	0.083899	0.449751	13234.341797
9453.106618	0.083910	0.449751	13308.434570
9453.107475	0.083939	0.449751	13380.370117
9453.108554	0.083939	0.449751	13470.940430
9453.109466	0.083888	0.449751	13547.446289
9453.110342	0.083921	0.449751	13620.960937
9453.111312	0.083972	0.449751	13702.414062
9453.953542	0.916425	0.564724	447.215179
9453.954430	1.318169	0.564724	1617.749268
9453.955305	1.328251	0.564724	2779.968750
9453.956237	1.300573	0.564724	3992.102295
9453.957185	1.270118	0.564724	5196.174316
9453.958115	1.241473	0.564724	6350.744629
9453.958996	1.214919	0.564724	7421.088867
9453.959950	1.187849	0.564724	8554.296875
9453.960887	1.161383	0.564724	9642.512695
9453.961806	1.136887	0.564724	10687.312500
9453.962676	1.119115	0.564724	11660.942383
9453.963650	1.086808	0.564724	12719.493164
9453.964622	0.287135	0.564724	12998.587891
9453.965511	0.084961	0.564724	13074.118164
9453.966446	0.083998	0.564724	13152.656250
9453.967400	0.083899	0.564724	13232.696289
9453.968310	0.083888	0.564724	13309.034180
9453.969197	0.083958	0.564724	13383.504883
9453.970105	0.083895	0.564724	13459.681641
9453.971059	0.083983	0.564724	13539.801758
9453.971951	0.083921	0.564724	13614.659180
9453.972860	0.083961	0.564724	13690.979492
9455.156734	0.902622	0.452958	433.258575
9455.157622	1.318242	0.452958	1603.857666
9455.158486	1.328375	0.452958	2751.573730
9455.159440	1.300382	0.452958	3992.138184
9455.160403	1.270064	0.452958	5215.209473
9455.161301	1.242092	0.452958	6330.608398
9455.162223	1.215000	0.452958	7450.838379
9455.163169	1.187340	0.452958	8574.062500
9455.164106	1.161237	0.452958	9662.140625
9455.165000	1.137495	0.452958	10679.061523
9455.165936	1.118390	0.452958	11725.875000
9455.166894	1.084871	0.452958	12765.181641
9455.167782	0.302560	0.452958	13033.854492
9455.168706	0.085474	0.452958	13112.832031
9455.169660	0.083892	0.452958	13192.864258
9455.170559	0.083906	0.452958	13268.295898
9455.171436	0.083914	0.452958	13341.887695
9455.172361	0.083965	0.452958	13419.554687
9455.173312	0.083848	0.452958	13499.293945
9455.174234	0.083892	0.452958	13576.641602
9455.175096	0.083903	0.452958	13648.965820
9455.176063	0.083932	0.452958	13730.127930
9456.019908	0.857307	0.569977	366.927429
9456.020938	1.320978	0.569977	1727.534668
9456.021958	1.322567	0.569977	3076.553223
9456.022846	1.294735	0.569977	4226.277832
9456.023798	1.264995	0.569977	5430.553223
9456.024863	1.232296	0.569977	6742.948730
9456.025793	1.204526	0.569977	7863.158203
9456.026658	1.179280	0.569977	8883.235352
9456.027719	1.150895	0.569977	10104.334961
9456.028738	1.126520	0.569977	11252.258789
9456.029618	1.107718	0.569977	12227.050781
9456.030608	0.719630	0.569977	12939.484375
9456.031669	0.093776	0.569977	13038.980469
9456.032568	0.083884	0.569977	13114.392578
9456.033431	0.083906	0.569977	13186.803711
9456.034503	0.084042	0.569977	13276.896484
9456.035493	0.083917	0.569977	13359.974609
9456.036385	0.083888	0.569977	13434.802734
9456.037374	0.083987	0.569977	13517.865234
9456.038436	0.083947	0.569977	13607.016602
9456.039327	0.083914	0.569977	13681.783203
9456.040188	0.083921	0.569977	13754.039062
9457.221075	0.874014	0.466328	388.062073
9457.221944	1.313694	0.466328	1529.662109
9457.222933	1.326987	0.466328	2842.052490
9457.223845	1.299419	0.466328	4027.122559
9457.224736	1.271213	0.466328	5159.773437
9457.225656	1.242946	0.466328	6303.283203
9457.226621	1.214249	0.466328	7475.033691
9457.227554	1.187241	0.466328	8582.729492
9457.228432	1.162679	0.466328	9603.562500
9457.229390	1.137103	0.466328	10692.907227
9457.230331	1.117939	0.466328	11744.888672
9457.231265	1.088178	0.466328	12761.246094
9457.232132	0.317007	0.466328	13036.090820
9457.233105	0.085100	0.466328	13118.893555
9457.234059	0.083906	0.466328	13198.940430
9457.234932	0.083881	0.466328	13272.167969
9457.235845	0.083859	0.466328	13348.730469
9457.236812	0.083811	0.466328	13429.775391
9457.237739	0.083917	0.466328	13507.566406
9457.238617	0.083928	0.466328	13581.255859
9457.239568	0.083840	0.466328	13660.988281
9457.240537	0.083833	0.466328	13742.222656
9458.086333	0.849620	0.581506	361.938293
9458.087271	1.311867	0.581506	1592.468994
9458.088330	1.324036	0.581506	2994.622803
9458.089223	1.296431	0.581506	4152.335449
9458.090088	1.268646	0.581506	5249.714355
9458.091130	1.236855	0.581506	6538.517578
9458.092093	1.208247	0.581506	7702.059570
9458.092974	1.182821	0.581506	8744.125000
9458.093860	1.157604	0.581506	9769.761719
9458.094955	1.131035	0.581506	11008.245117
9458.095840	1.113248	0.581506	11993.469727
9458.096703	1.017447	0.581506	12871.527344
9458.097732	0.158075	0.581506	13034.186523
9458.098706	0.083793	0.581506	13115.800781
9458.099582	0.083972	0.581506	13189.360352
9458.100439	0.083873	0.581506	13261.240234
9458.101551	0.083910	0.581506	13354.547852
9458.102460	0.083925	0.581506	13430.834961
9458.103321	0.083877	0.581506	13503.052734
9458.104424	0.083910	0.581506	13595.605469
9458.105395	0.084009	0.581506	13677.177734
9458.106270	0.083917	0.581506	13750.605469
9459.286517	0.891874	0.463742	418.288788
9459.287450	1.319898	0.463742	1649.753174
9459.288329	1.327811	0.463742	2816.899414
9459.289261	1.300474	0.463742	4028.940918
9459.290202	1.269921	0.463742	5223.936035
9459.291134	1.241008	0.463742	6380.555664
9459.292019	1.214421	0.463742	7455.318359
9459.292937	1.187300	0.463742	8545.259766
9459.293896	1.160826	0.463742	9658.492187
9459.294835	1.136389	0.463742	10725.561523
9459.295698	1.118807	0.463742	11691.091797
9459.296672	1.080406	0.463742	12743.408203
9459.297641	0.269081	0.463742	13004.147461
9459.298529	0.084694	0.463742	13079.355469
9459.299448	0.083833	0.463742	13156.398437
9459.300396	0.083873	0.463742	13235.910156
9459.301282	0.083903	0.463742	13310.248047
9459.302157	0.083925	0.463742	13383.681641
9459.303137	0.083862	0.463742	13465.867187
9459.304079	0.083873	0.463742	13544.875977
9459.304970	0.083987	0.463742	13619.708008
9459.305885	0.083895	0.463742	13696.472656
9460.154869	0.899220	0.603375	433.424011
9460.155751	1.317297	0.603375	1595.280273
9460.156617	1.328379	0.603375	2745.656250
9460.157680	1.297240	0.603375	4124.622070
9460.158630	1.266881	0.603375	5328.159180
9460.159515	1.239532	0.603375	6425.145508
9460.160452	1.211598	0.603375	7560.412598
9460.161499	1.181927	0.603375	8797.890625
9460.162384	1.157274	0.603375	9822.078125
9460.163250	1.134097	0.603375	10804.206055
9460.164314	1.113270	0.603375	11988.725586
9460.165261	0.960835	0.603375	12898.636719
9460.166140	0.168307	0.603375	13046.578125
9460.167046	0.083969	0.603375	13122.653320
9460.168137	0.083844	0.603375	13214.126953
9460.169010	0.083903	0.603375	13287.374023
9460.169874	0.083895	0.603375	13359.859375
9460.170889	0.083954	0.603375	13445.072266
9460.171859	0.083877	0.603375	13526.432617
9460.172731	0.083910	0.603375	13599.602539
9460.173615	0.083895	0.603375	13673.765625
9460.174732	0.083877	0.603375	13767.456055
9461.351880	0.861735	0.477942	370.545898
9461.352818	1.316045	0.477942	1604.996094
9461.353755	1.326998	0.477942	2848.393555
9461.354679	1.299536	0.477942	4049.165039
9461.355550	1.271279	0.477942	5156.449219
9461.356516	1.242144	0.477942	6356.359863
9461.357459	1.213253	0.477942	7500.457520
9461.358370	1.186967	0.477942	8581.784180
9461.359242	1.162181	0.477942	9595.206055
9461.360217	1.136554	0.477942	10703.345703
9461.361167	1.117841	0.477942	11765.293945
9461.362061	1.092466	0.477942	12741.958008
9461.363047	0.296001	0.477942	13033.815430
9461.364097	0.084144	0.477942	13122.166992
9461.365071	0.083815	0.477942	13203.802734
9461.365933	0.083892	0.477942	13276.117187
9461.367011	0.083972	0.477942	13366.639648
9461.368039	0.083881	0.477942	13452.869141
9461.368920	0.083862	0.477942	13526.751953
9461.369845	0.083939	0.477942	13604.395508
9461.370901	0.083884	0.477942	13692.977539
9461.371840	0.083892	0.477942	13771.751953
9462.220216	0.848745	0.612056	357.321686
9462.221258	1.321113	0.612056	1733.921753
9462.222142	1.325801	0.612056	2905.929687
9462.223009	1.299470	0.612056	4032.570312
9462.223929	1.269807	0.612056	5200.792969
9462.224938	1.238412	0.612056	6450.350586
9462.225877	1.210840	0.612056	7587.329102
9462.226758	1.185619	0.612056	8631.859375
9462.227766	1.158230	0.612056	9799.355469
9462.228686	1.133181	0.612056	10841.881836
9462.229621	1.115500	0.612056	11884.875000
9462.230493	1.003315	0.612056	12759.765625
9462.231554	0.166783	0.612056	12936.722656
9462.232436	0.083899	0.612056	13010.721680
9462.233303	0.083921	0.612056	13083.481445
9462.234302	0.083910	0.612056	13167.307617
9462.235215	0.083829	0.612056	13243.843750
9462.236117	0.083873	0.612056	13319.497070
9462.236995	0.083972	0.612056	13393.224609
9462.238014	0.083914	0.612056	13478.732422
9462.238912	0.083895	0.612056	13554.070312
9462.239829	0.083881	0.612056	13630.989258
9463.416329	0.888010	0.483940	446.669159
9463.417402	1.327548	0.483940	1871.127686
9463.418341	1.321619	0.483940	3112.127441
9463.419214	1.293816	0.483940	4241.628906
9463.420287	1.260370	0.483940	5594.005859
9463.421291	1.229586	0.483940	6828.510254
9463.422185	1.203128	0.483940	7904.106445
9463.423155	1.176141	0.483940	9044.963867
9463.424203	1.147196	0.483940	10247.225586
9463.425130	1.125656	0.483940	11290.708008
9463.425994	1.106536	0.483940	12246.754883
9463.427067	0.615465	0.483940	12907.148437
9463.428068	0.089161	0.483940	12996.399414
9463.428952	0.083807	0.483940	13070.485352
9463.429952	0.083936	0.483940	13154.420898
9463.431004	0.083895	0.483940	13242.678711
9463.431892	0.083833	0.483940	13317.122070
9463.432748	0.083851	0.483940	13388.898437
9463.433835	0.083895	0.483940	13480.092773
9463.434799	0.083789	0.483940	13560.865234
9463.435675	0.083866	0.483940	13634.332031
9463.436679	0.083870	0.483940	13718.537109
9464.286679	0.876647	0.619275	390.984467
9464.287546	1.313068	0.619275	1529.414062
9464.288527	1.327057	0.619275	2831.256836
9464.289433	1.299602	0.619275	4008.696289
9464.290323	1.271407	0.619275	5140.249023
9464.291238	1.243154	0.619275	6277.735352
9464.292200	1.214491	0.619275	7446.075684
9464.293131	1.187446	0.619275	8551.587891
9464.294016	1.162896	0.619275	9580.750000
9464.294971	1.137510	0.619275	10667.072266
9464.295907	1.118262	0.619275	11713.765625
9464.296846	1.092627	0.619275	12739.742187
9464.297714	0.338555	0.619275	13033.607422
9464.298687	0.085173	0.619275	13116.481445
9464.299641	0.083895	0.619275	13196.517578
9464.300512	0.083936	0.619275	13269.625000
9464.301430	0.083910	0.619275	13346.654297
9464.302373	0.083870	0.619275	13425.743164
9464.303295	0.083939	0.619275	13503.134766
9464.304172	0.083932	0.619275	13576.743164
9464.305150	0.083888	0.619275	13658.785156
9464.306122	0.083917	0.619275	13740.352539
9465.481674	0.870396	0.486010	380.362854
9465.482554	1.313551	0.486010	1536.287842
9465.483541	1.326841	0.486010	2845.879639
9465.484534	1.297094	0.486010	4133.893555
9465.485426	1.268727	0.486010	5265.597656
9465.486292	1.241030	0.486010	6340.330078
9465.487385	1.209580	0.486010	7662.401367
9465.488292	1.183187	0.486010	8735.552734
9465.489169	1.159091	0.486010	9752.075195
9465.490199	1.133104	0.486010	10919.172852
9465.491205	1.112344	0.486010	12038.190430
9465.492093	0.974700	0.486010	12903.723633
9465.492955	0.177565	0.486010	13056.784180
9465.494021	0.083800	0.486010	13146.115234
9465.494937	0.083928	0.486010	13222.993164
9465.495816	0.083866	0.486010	13296.710937
9465.496806	0.083958	0.486010	13379.829102
9465.497806	0.083943	0.486010	13463.772461
9465.498696	0.083939	0.486010	13538.478516
9465.499560	0.083998	0.486010	13611.052734
9465.500650	0.083818	0.486010	13702.415039
9465.501579	0.083866	0.486010	13780.326172
9466.353116	0.869015	0.626941	386.711639
9466.353992	1.313599	0.626941	1537.424072
9466.354910	1.328134	0.626941	2756.650879
9466.355851	1.299657	0.626941	3979.627930
9466.356779	1.270525	0.626941	5158.674805
9466.357659	1.242751	0.626941	6252.295898
9466.358644	1.213967	0.626941	7448.053711
9466.359593	1.186732	0.626941	8574.262695
9466.360487	1.161782	0.626941	9612.895508
9466.361399	1.137583	0.626941	10650.371094
9466.362373	1.118137	0.626941	11739.436523
9466.363302	1.088774	0.626941	12750.908203
9466.364171	0.322372	0.626941	13031.049805
9466.365141	0.084888	0.626941	13113.390625
9466.366072	0.083851	0.626941	13191.456055
9466.366973	0.083939	0.626941	13267.084961
9466.367849	0.083932	0.626941	13340.609375
9466.368815	0.083969	0.626941	13421.722656
9466.369774	0.083818	0.626941	13502.104492
9466.370666	0.083972	0.626941	13577.007812
9466.371580	0.083884	0.626941	13653.677734
9466.372503	0.083884	0.626941	13731.102539
9467.546043	0.848126	0.524086	360.453613
9467.547039	1.315712	0.524086	1670.902344
9467.547974	1.325457	0.524086	2910.204102
9467.548895	1.297848	0.524086	4105.521973
9467.549766	1.269620	0.524086	5211.361328
9467.550821	1.237610	0.524086	6517.040039
9467.551718	1.210565	0.524086	7602.916992
9467.552599	1.185289	0.524086	8647.157227
9467.553560	1.159105	0.524086	9761.057617
9467.554537	1.133203	0.524086	10868.197266
9467.555463	1.115464	0.524086	11901.117187
9467.556333	1.049480	0.524086	12814.165039
9467.557400	0.180535	0.524086	13006.795898
9467.558271	0.083954	0.524086	13079.919922
9467.559142	0.083983	0.524086	13153.069336
9467.560021	0.083983	0.524086	13226.890625
9467.561058	0.083895	0.524086	13313.889648
9467.561948	0.083910	0.524086	13388.569336
9467.562823	0.083928	0.524086	13462.006836
9467.563807	0.083943	0.524086	13544.606445
9467.564744	0.083910	0.524086	13623.230469
9467.565665	0.083961	0.524086	13700.558594
9468.419558	0.894653	0.624286	408.856567
9468.420475	1.317854	0.624286	1617.328735
9468.421338	1.327749	0.624286	2763.176270
9468.422328	1.299291	0.624286	4049.474121
9468.423258	1.269174	0.624286	5229.805664
9468.424154	1.241356	0.624286	6342.061035
9468.425072	1.214330	0.624286	7456.815918
9468.426036	1.186560	0.624286	8600.660156
9468.426967	1.160511	0.624286	9681.095703
9468.427846	1.136924	0.624286	10680.452148
9468.428809	1.117302	0.624286	11756.414062
9468.429770	1.073873	0.624286	12788.406250
9468.430666	0.271666	0.624286	13031.819336
9468.431758	0.083767	0.624286	13123.292969
9468.432713	0.083829	0.624286	13203.349609
9468.433631	0.083881	0.624286	13280.351562
9468.434492	0.083906	0.624286	13352.594727
9468.435465	0.083844	0.624286	13434.174805
9468.436411	0.083943	0.624286	13513.584961
9468.437293	0.083884	0.624286	13587.571289
9468.438155	0.083848	0.624286	13659.847656
9468.439127	0.083866	0.624286	13741.365234
9469.613496	0.866261	0.485168	366.428375
9469.614479	1.320535	0.485168	1664.513794
9469.615404	1.326303	0.485168	2891.343750
9469.616295	1.299434	0.485168	4049.139160
9469.617245	1.269990	0.485168	5255.629883
9469.618187	1.240540	0.485168	6424.218262
9469.619107	1.212440	0.485168	7539.663086
9469.620009	1.186633	0.485168	8610.005859
9469.620944	1.160599	0.485168	9695.166016
9469.621899	1.135320	0.485168	10779.396484
9469.622781	1.118309	0.485168	11765.745117
9469.623764	1.065773	0.485168	12813.399414
9469.624705	0.234100	0.485168	13033.687500
9469.625614	0.084192	0.485168	13110.217773
9469.626498	0.083881	0.485168	13184.368164
9469.627412	0.083833	0.485168	13260.991211
9469.628376	0.083837	0.485168	13341.809570
9469.629298	0.083910	0.485168	13419.174805
9469.630162	0.083888	0.485168	13491.654297
9469.631129	0.083870	0.485168	13572.755859
9469.632085	0.083895	0.485168	13652.959961
9469.632975	0.083807	0.485168	13727.548828
9470.484928	0.849734	0.630877	361.986633
9470.485947	1.316807	0.630877	1703.812744
9470.487017	1.321637	0.630877	3117.964355
9470.487903	1.293483	0.630877	4263.990234
9470.488767	1.264684	0.630877	5356.677246
9470.489877	1.232120	0.630877	6724.331055
9470.490841	1.203556	0.630877	7884.559082
9470.491708	1.178826	0.630877	8906.600586
9470.492768	1.150144	0.630877	10125.752930
9470.493808	1.125802	0.630877	11296.586914
9470.494682	1.106407	0.630877	12263.586914
9470.495608	0.718678	0.630877	12929.083008
9470.496689	0.092655	0.630877	13029.243164
9470.497634	0.083855	0.630877	13108.486328
9470.498499	0.083870	0.630877	13181.033203
9470.499554	0.083881	0.630877	13269.527344
9470.500577	0.083851	0.630877	13355.307617
9470.501468	0.083881	0.630877	13430.044922
9470.502438	0.083928	0.630877	13511.455078
9470.503494	0.083859	0.630877	13600.009766
9470.504418	0.083892	0.630877	13677.525391
9470.505278	0.083873	0.630877	13749.656250
9471.678944	0.871362	0.494373	392.113037
9471.679811	1.314536	0.494373	1531.815796
9471.680710	1.328577	0.494373	2726.206055
9471.681656	1.300605	0.494373	3956.578613
9471.682619	1.270327	0.494373	5179.903320
9471.683515	1.242839	0.494373	6293.487305
9471.684437	1.215081	0.494373	7413.791504
9471.685397	1.187501	0.494373	8553.792969
9471.686291	1.162632	0.494373	9593.185547
9471.687209	1.138469	0.494373	10638.300781
9471.688175	1.118679	0.494373	11718.945312
9471.689109	1.092414	0.494373	12739.260742
9471.689977	0.338983	0.494373	13033.498047
9471.690897	0.085323	0.494373	13111.996094
9471.691858	0.083892	0.494373	13192.616211
9471.692777	0.084108	0.494373	13269.911133
9471.693653	0.083976	0.494373	13343.473633
9471.694639	0.083895	0.494373	13426.194336
9471.695592	0.083961	0.494373	13506.208984
9471.696478	0.084009	0.494373	13580.640625
9471.697383	0.083983	0.494373	13656.645508
9471.698310	0.083958	0.494373	13734.474609
9472.551349	0.843120	0.636013	354.110443
9472.552348	1.315038	0.636013	1667.833252
9472.553405	1.322311	0.636013	3065.515625
9472.554313	1.294058	0.636013	4240.520020
9472.555178	1.265317	0.636013	5335.019531
9472.556282	1.232783	0.636013	6696.012207
9472.557246	1.203845	0.636013	7856.519043
9472.558123	1.179203	0.636013	8890.679687
9472.559148	1.151477	0.636013	10070.943359
9472.560207	1.126271	0.636013	11263.664062
9472.561093	1.106935	0.636013	12244.408203
9472.561992	0.761067	0.636013	12928.607422
9472.563075	0.096940	0.636013	13033.592773
9472.564016	0.083862	0.636013	13112.506836
9472.564876	0.083954	0.636013	13184.707031
9472.565902	0.083972	0.636013	13270.862305
9472.566959	0.083910	0.636013	13359.554687
9472.567844	0.083961	0.636013	13433.860352
9472.568710	0.084023	0.636013	13506.625000
9472.569748	0.083979	0.636013	13593.795898
9472.570700	0.083954	0.636013	13673.719727
9472.571575	0.083903	0.636013	13747.134766
9473.744385	0.907181	0.498885	450.869141
9473.745318	1.321176	0.498885	1683.526001
9473.746239	1.325830	0.498885	2904.615479
9473.747110	1.299291	0.498885	4036.297852
9473.748021	1.270496	0.498885	5193.719238
9473.748977	1.241114	0.498885	6380.224609
9473.749908	1.213143	0.498885	7509.661133
9473.750791	1.187450	0.498885	8558.179687
9473.751753	1.160900	0.498885	9674.964844
9473.752696	1.135580	0.498885	10745.816406
9473.753584	1.118379	0.498885	11738.936523
9473.754690	0.998877	0.498885	12843.694336
9473.755639	0.170801	0.498885	13005.784180
9473.756560	0.083881	0.498885	13083.038086
9473.757419	0.083888	0.498885	13155.097656
9473.758385	0.083914	0.498885	13236.158203
9473.759308	0.083888	0.498885	13313.586914
9473.760199	0.083943	0.498885	13388.379883
9473.761115	0.083895	0.498885	13465.227539
9473.762079	0.083906	0.498885	13546.113281
9473.763009	0.083881	0.498885	13624.122070
9473.763888	0.083921	0.498885	13697.888672
9474.617790	0.852275	0.636943	363.069305
9474.618656	1.310790	0.636943	1498.213379
9474.619759	1.324241	0.636943	2958.850830
9474.620686	1.295775	0.636943	4160.034180
9474.621565	1.267925	0.636943	5274.540039
9474.622541	1.238306	0.636943	6483.126465
9474.623553	1.207705	0.636943	7705.324219
9474.624452	1.181935	0.636943	8767.883789
9474.625334	1.157662	0.636943	9788.941406
9474.626342	1.132394	0.636943	10930.394531
9474.627295	1.113043	0.636943	11991.125000
9474.628174	1.006307	0.636943	12875.668945
9474.629165	0.187515	0.636943	13061.496094
9474.630192	0.083895	0.636943	13147.656250
9474.631072	0.083903	0.636943	13221.490234
9474.631939	0.083950	0.636943	13294.275391
9474.632920	0.083943	0.636943	13376.623047
9474.633873	0.083925	0.636943	13456.603516
9474.634780	0.083903	0.636943	13532.703125
9474.635653	0.083936	0.636943	13605.978516
9474.636697	0.083862	0.636943	13693.531250
9474.637601	0.083862	0.636943	13769.342773
9475.811927	0.980032	0.499352	560.578125
9475.812970	1.329188	0.499352	1946.921387
9475.813892	1.320754	0.499352	3164.656982
9475.814759	1.292560	0.499352	4285.306152
9475.815853	1.259033	0.499352	5662.688477
9475.816854	1.228396	0.499352	6892.312988
9475.817730	1.202322	0.499352	7945.546875
9475.818752	1.174098	0.499352	9145.474609
9475.819810	1.145438	0.499352	10357.348633
9475.820697	1.124897	0.499352	11355.132812
9475.821564	1.104756	0.499352	12312.956055
9475.822679	0.539150	0.499352	12914.108398
9475.823632	0.087847	0.499352	12997.826172
9475.824489	0.083851	0.499352	13069.686523
9475.825535	0.084012	0.499352	13157.563477
9475.826568	0.083899	0.499352	13244.231445
9475.827457	0.083906	0.499352	13318.824219
9475.828380	0.083932	0.499352	13396.292969
9475.829449	0.083969	0.499352	13486.055664
9475.830388	0.083939	0.499352	13564.875000
9475.831256	0.083998	0.499352	13637.785156
9475.832283	0.083943	0.499352	13723.994141
9476.684242	0.868663	0.639199	386.555176
9476.685107	1.312379	0.639199	1521.763184
9476.686090	1.326643	0.639199	2825.853271
9476.687041	1.298071	0.639199	4060.319092
9476.687955	1.269342	0.639199	5220.497559
9476.688836	1.241616	0.639199	6314.361328
9476.689887	1.210763	0.639199	7586.873047
9476.690788	1.184722	0.639199	8654.307617
9476.691672	1.160222	0.639199	9679.944336
9476.692631	1.135243	0.639199	10768.642578
9476.693619	1.115585	0.639199	11870.839844
9476.694549	1.043829	0.639199	12841.601562
9476.695417	0.234639	0.639199	13045.267578
9476.696479	0.084031	0.639199	13134.507812
9476.697361	0.083910	0.639199	13208.516602
9476.698226	0.083958	0.639199	13281.139648
9476.699121	0.083950	0.639199	13356.275391
9476.700137	0.083881	0.639199	13441.498047
9476.701062	0.083950	0.639199	13519.152344
9476.701938	0.083895	0.639199	13592.644531
9476.702923	0.083969	0.639199	13675.353516
9476.703846	0.083888	0.639199	13752.782227
9477.879305	0.910269	0.501689	456.044586
9477.880238	1.322944	0.501689	1690.351685
9477.881106	1.326654	0.501689	2841.887451
9477.882170	1.294812	0.501689	4219.567383
9477.883174	1.263124	0.501689	5487.743652
9477.884066	1.235746	0.501689	6590.028809
9477.885051	1.206976	0.501689	7778.900391
9477.886109	1.176628	0.501689	9023.773437
9477.887015	1.151741	0.501689	10067.250977
9477.887880	1.129629	0.501689	11044.379883
9477.888974	1.107382	0.501689	12255.855469
9477.889977	0.698906	0.501689	12956.858398
9477.890855	0.101144	0.501689	13045.663086
9477.891855	0.083987	0.501689	13129.650391
9477.892901	0.084020	0.501689	13217.535156
9477.893783	0.084060	0.501689	13291.675781
9477.894649	0.084012	0.501689	13364.430664
9477.895741	0.084078	0.501689	13456.244141
9477.896714	0.083914	0.501689	13537.891602
9477.897584	0.084053	0.501689	13611.017578
9477.898649	0.084034	0.501689	13700.514648
9477.899691	0.083958	0.501689	13787.998047
9478.751700	0.872197	0.639687	386.383392
9478.752566	1.312694	0.639687	1523.176514
9478.753550	1.326775	0.639687	2828.723145
9478.754478	1.299437	0.639687	4034.601074
9478.755352	1.271082	0.639687	5145.526367
9478.756297	1.242224	0.639687	6319.428223
9478.757246	1.213656	0.639687	7471.187988
9478.758186	1.186468	0.639687	8586.468750
9478.759062	1.162090	0.639687	9604.458984
9478.759982	1.136858	0.639687	10650.368164
9478.760944	1.117998	0.639687	11725.881836
9478.761872	1.091543	0.639687	12738.833984
9478.762741	0.332413	0.639687	13027.701172
9478.763716	0.085217	0.639687	13110.788086
9478.764647	0.083954	0.639687	13188.949219
9478.765503	0.083888	0.639687	13260.756836
9478.766495	0.083925	0.639687	13344.009766
9478.767419	0.083936	0.639687	13421.566406
9478.768336	0.084005	0.639687	13498.598633
9478.769214	0.083921	0.639687	13572.281250
9478.770218	0.083972	0.639687	13656.588867
9478.771138	0.083910	0.639687	13733.786133
9479.945737	0.909525	0.506490	455.672089
9479.946669	1.322673	0.506490	1688.403687
9479.947537	1.326833	0.506490	2840.095215
9479.948607	1.294911	0.506490	4225.649902
9479.949622	1.262531	0.506490	5507.118164
9479.950516	1.235109	0.506490	6611.305176
9479.951486	1.206478	0.506490	7781.589355
9479.952554	1.175995	0.506490	9037.551758
9479.953482	1.150540	0.506490	10105.251953
9479.954349	1.128702	0.506490	11083.836914
9479.955450	1.106027	0.506490	12301.572266
9479.956445	0.643524	0.506490	12941.878906
9479.957331	0.096002	0.506490	13026.936523
9479.958343	0.083939	0.506490	13111.882812
9479.959377	0.083862	0.506490	13198.596680
9479.960274	0.083906	0.506490	13273.860352
9479.961134	0.083877	0.506490	13345.994141
9479.962246	0.084034	0.506490	13439.440430
9479.963205	0.083928	0.506490	13519.927734
9479.964062	0.083969	0.506490	13591.888672
9479.965123	0.083998	0.506490	13681.010742
9479.966172	0.083833	0.506490	13768.951172
9480.818139	0.882638	0.646519	396.304413
9480.819010	1.313818	0.646519	1540.640259
9480.819985	1.326757	0.646519	2834.228027
9480.820901	1.299437	0.646519	4024.512695
9480.821777	1.271290	0.646519	5138.163086
9480.822711	1.242883	0.646519	6299.016113
9480.823663	1.214128	0.646519	7454.866211
9480.824587	1.187263	0.646519	8551.897461
9480.825467	1.162745	0.646519	9575.113281
9480.826397	1.137491	0.646519	10632.980469
9480.827363	1.118203	0.646519	11713.164062
9480.828296	1.093279	0.646519	12733.193359
9480.829164	0.342437	0.646519	13030.428711
9480.830130	0.085280	0.646519	13112.808594
9480.831083	0.083859	0.646519	13192.725586
9480.831968	0.083866	0.646519	13266.947266
9480.832901	0.083914	0.646519	13345.238281
9480.833803	0.083782	0.646519	13420.809570
9480.834732	0.083950	0.646519	13498.798828
9480.835608	0.083866	0.646519	13572.265625
9480.836621	0.083895	0.646519	13657.251953
9480.837564	0.083954	0.646519	13736.420898
9482.013120	0.854191	0.509310	366.447784
9482.013996	1.312244	0.509310	1515.973145
9482.014950	1.327676	0.509310	2782.575928
9482.015995	1.296837	0.509310	4137.770508
9482.016896	1.268210	0.509310	5280.428223
9482.017765	1.240964	0.509310	6358.826172
9482.018830	1.209309	0.509310	7646.740234
9482.019795	1.181843	0.509310	8787.218750
9482.020679	1.157336	0.509310	9810.304687
9482.021612	1.133214	0.509310	10867.593750
9482.022661	1.112307	0.509310	12034.404297
9482.023547	0.977172	0.509310	12900.178711
9482.024413	0.178777	0.509310	13054.999023
9482.025474	0.083818	0.509310	13143.930664
9482.026419	0.083976	0.509310	13223.288086
9482.027290	0.083972	0.509310	13296.427734
9482.028209	0.083947	0.509310	13373.574219
9482.029281	0.083990	0.509310	13463.612305
9482.030176	0.083928	0.509310	13538.728516
9482.031041	0.083947	0.509310	13611.341797
9482.032064	0.083921	0.509310	13697.193359
9482.033032	0.083888	0.509310	13778.396484
9482.884554	0.857761	0.651643	378.272705
9482.885436	1.312954	0.651643	1536.298218
9482.886348	1.328101	0.651643	2747.525879
9482.887322	1.300305	0.651643	4014.022949
9482.888252	1.270247	0.651643	5195.352539
9482.889126	1.243151	0.651643	6281.866211
9482.890060	1.214370	0.651643	7416.087891
9482.891006	1.186904	0.651643	8538.899414
9482.891928	1.161775	0.651643	9610.055664
9482.892811	1.137902	0.651643	10614.823242
9482.893794	1.118174	0.651643	11713.988281
9482.894751	1.081384	0.651643	12748.873047
9482.895651	0.291837	0.651643	13011.526367
9482.896568	0.085455	0.651643	13089.888672
9482.897529	0.083932	0.651643	13170.546875
9482.898450	0.083965	0.651643	13247.878906
9482.899316	0.083950	0.651643	13320.580078
9482.900236	0.083939	0.651643	13397.803711
9482.901167	0.083969	0.651643	13475.978516
9482.902096	0.083965	0.651643	13553.981445
9482.902976	0.083983	0.651643	13627.886719
9482.903939	0.083994	0.651643	13708.773437
9484.079582	0.874578	0.518490	391.810791
9484.080459	1.313719	0.518490	1543.942749
9484.081323	1.329214	0.518490	2692.383545
9484.082388	1.299071	0.518490	4075.894043
9484.083266	1.269990	0.518490	5190.945312
9484.084147	1.242894	0.518490	6285.935059
9484.085029	1.215187	0.518490	7357.729492
9484.086086	1.185582	0.518490	8610.889648
9484.086987	1.160790	0.518490	9656.761719
9484.087864	1.137550	0.518490	10654.393555
9484.088863	1.117559	0.518490	11770.834961
9484.089791	1.071292	0.518490	12764.993164
9484.090725	0.256388	0.518490	13004.459961
9484.091588	0.084803	0.518490	13077.645508
9484.092632	0.083906	0.518490	13165.243164
9484.093511	0.083939	0.518490	13239.025391
9484.094378	0.083972	0.518490	13311.829102
9484.095352	0.084009	0.518490	13393.653320
9484.096286	0.083895	0.518490	13472.011719
9484.097190	0.083958	0.518490	13547.909180
9484.098067	0.083950	0.518490	13621.533203
9484.099109	0.083906	0.518490	13708.963867
9484.952001	0.847782	0.671692	362.002899
9484.952865	1.310277	0.671692	1494.082397
9484.953838	1.327386	0.671692	2785.629395
9484.954780	1.298917	0.671692	4009.209473
9484.955707	1.268950	0.671692	5185.526367
9484.956572	1.242469	0.671692	6260.262695
9484.957537	1.214286	0.671692	7432.048828
9484.958475	1.186974	0.671692	8545.430664
9484.959374	1.162035	0.671692	9590.099609
9484.960297	1.137722	0.671692	10640.216797
9484.961259	1.118357	0.671692	11716.076172
9484.962188	1.089686	0.671692	12728.394531
9484.963071	0.327729	0.671692	13017.779297
9484.964027	0.084752	0.671692	13098.802734
9484.964973	0.083804	0.671692	13178.081055
9484.965865	0.083873	0.671692	13252.896484
9484.966965	0.083870	0.671692	13345.153320
9484.967908	0.083818	0.671692	13424.194336
9484.968836	0.083837	0.671692	13501.995117
9484.969697	0.083892	0.671692	13574.225586
9484.970676	0.083859	0.671692	13656.323242
9484.971625	0.083925	0.671692	13735.967773
9486.144958	0.854579	0.533085	364.050598
9486.145950	1.320414	0.533085	1673.901123
9486.146879	1.326251	0.533085	2905.988525
9486.147759	1.299302	0.533085	4049.374023
9486.148653	1.270422	0.533085	5185.131836
9486.149613	1.240525	0.533085	6376.035645
9486.150562	1.212422	0.533085	7526.624023
9486.151455	1.186765	0.533085	8586.405273
9486.152381	1.161314	0.533085	9661.781250
9486.153333	1.136228	0.533085	10743.470703
9486.154259	1.117811	0.533085	11778.564453
9486.155139	1.092704	0.533085	12740.143555
9486.156101	0.272131	0.533085	13001.933594
9486.157054	0.084349	0.533085	13082.318359
9486.157927	0.083932	0.533085	13155.590820
9486.159071	0.083888	0.533085	13251.558594
9486.160007	0.083881	0.533085	13330.071289
9486.160934	0.083987	0.533085	13407.926758
9486.161800	0.083994	0.533085	13480.666016
9486.162745	0.083892	0.533085	13559.943359
9486.163673	0.083866	0.533085	13637.770508
9486.164589	0.083928	0.533085	13714.648437
9487.018506	0.911041	0.686641	459.164795
9487.019418	1.321033	0.686641	1663.946533
9487.020283	1.326284	0.686641	2811.182373
9487.021383	1.293929	0.686641	4234.504883
9487.022385	1.261981	0.686641	5499.009766
9487.023281	1.234526	0.686641	6605.145508
9487.024271	1.205350	0.686641	7798.442383
9487.025321	1.175669	0.686641	9032.894531
9487.026225	1.150565	0.686641	10073.005859
9487.027089	1.128757	0.686641	11048.251953
9487.028214	1.105778	0.686641	12292.251953
9487.029183	0.681632	0.686641	12952.753906
9487.030045	0.100001	0.686641	13038.955078
9487.031104	0.083943	0.686641	13127.850586
9487.032136	0.083862	0.686641	13214.396484
9487.033016	0.083906	0.686641	13288.234375
9487.033946	0.083969	0.686641	13366.325195
9487.035022	0.083969	0.686641	13456.675781
9487.035960	0.083851	0.686641	13535.328125
9487.036817	0.083939	0.686641	13607.263672
9487.037847	0.083936	0.686641	13693.716797
9487.038880	0.083906	0.686641	13780.391602
9488.209406	0.911741	0.539277	440.370758
9488.210313	1.319224	0.539277	1636.906616
9488.211241	1.326401	0.539277	2867.807129
9488.212109	1.299701	0.539277	3995.947754
9488.213077	1.269730	0.539277	5225.046875
9488.214040	1.240294	0.539277	6419.450195
9488.214914	1.213326	0.539277	7479.897461
9488.215834	1.187142	0.539277	8572.068359
9488.216796	1.160614	0.539277	9688.579102
9488.217692	1.136448	0.539277	10706.835937
9488.218558	1.118705	0.539277	11675.634766
9488.219530	1.084581	0.539277	12729.847656
9488.220495	0.271597	0.539277	12991.938477
9488.221381	0.084672	0.539277	13066.958008
9488.222299	0.083793	0.539277	13143.879883
9488.223252	0.083928	0.539277	13223.863281
9488.224171	0.083870	0.539277	13300.939453
9488.225033	0.083895	0.539277	13373.256836
9488.225955	0.083877	0.539277	13450.591797
9488.226907	0.083844	0.539277	13530.411133
9488.227834	0.083888	0.539277	13608.174805
9488.228711	0.083884	0.539277	13681.741211
9489.086905	0.868001	0.691289	367.164215
9489.088011	1.324178	0.691289	1831.705566
9489.088980	1.321655	0.691289	3112.389648
9489.089844	1.294435	0.691289	4230.781250
9489.090885	1.261190	0.691289	5543.680176
9489.091935	1.229363	0.691289	6834.511230
9489.092835	1.202596	0.691289	7916.848145
9489.093786	1.175863	0.691289	9035.093750
9489.094852	1.146786	0.691289	10257.567383
9489.095788	1.125201	0.691289	11310.755859
9489.096658	1.106166	0.691289	12273.120117
9489.097714	0.620372	0.691289	12928.233398
9489.098720	0.089030	0.691289	13017.796875
9489.099611	0.083939	0.691289	13092.586914
9489.100566	0.084027	0.691289	13172.833008
9489.101628	0.083899	0.691289	13261.933594
9489.102547	0.083932	0.691289	13339.067383
9489.103410	0.083939	0.691289	13411.506836
9489.104495	0.083998	0.691289	13502.644531
9489.105487	0.083844	0.691289	13585.817383
9489.106369	0.083936	0.691289	13659.848633
9489.107229	0.083892	0.691289	13731.995117
9490.275771	0.847313	0.543885	358.413483
9490.276742	1.317997	0.543885	1638.188354
9490.277681	1.325885	0.543885	2883.194336
9490.278605	1.298086	0.543885	4082.625732
9490.279472	1.270074	0.543885	5183.780273
9490.280444	1.240448	0.543885	6389.495605
9490.281418	1.211719	0.543885	7569.709961
9490.282291	1.186077	0.543885	8605.155273
9490.283209	1.160852	0.543885	9670.817383
9490.284180	1.135301	0.543885	10773.195312
9490.285109	1.117009	0.543885	11810.896484
9490.285988	1.086464	0.543885	12765.898437
9490.287036	0.223282	0.543885	12999.898437
9490.288090	0.083917	0.543885	13088.347656
9490.289027	0.083848	0.543885	13166.913086
9490.289891	0.083859	0.543885	13239.367187
9490.290971	0.083939	0.543885	13330.021484
9490.291983	0.083928	0.543885	13414.957031
9490.292871	0.083983	0.543885	13489.534180
9490.293847	0.083910	0.543885	13571.430664
9490.294881	0.083899	0.543885	13658.182617
9490.295789	0.083917	0.543885	13734.379883
9491.155413	0.872216	0.694049	382.030426
9491.156306	1.313247	0.694049	1554.760010
9491.157176	1.328800	0.694049	2710.815918
9491.158040	1.302436	0.694049	3836.121094
9491.159057	1.271521	0.694049	5129.257812
9491.159973	1.242993	0.694049	6267.839844
9491.160851	1.216198	0.694049	7335.661133
9491.161870	1.187131	0.694049	8545.347656
9491.162775	1.161735	0.694049	9596.717773
9491.163699	1.137455	0.694049	10647.726562
9491.164565	1.119346	0.694049	11617.080078
9491.165574	1.089346	0.694049	12716.229492
9491.166499	0.308101	0.694049	13001.222656
9491.167364	0.085437	0.694049	13075.125977
9491.168392	0.083936	0.694049	13161.412109
9491.169275	0.083958	0.694049	13235.546875
9491.170200	0.083928	0.694049	13313.180664
9491.171065	0.083976	0.694049	13385.819336
9491.172030	0.083910	0.694049	13466.791992
9491.172943	0.083873	0.694049	13543.368164
9491.173824	0.083972	0.694049	13617.347656
9491.174801	0.083921	0.694049	13699.337891
9492.340152	0.857325	0.546898	363.505981
9492.341211	1.322977	0.546898	1764.538940
9492.342145	1.323937	0.546898	3001.095703
9492.343027	1.296702	0.546898	4144.786621
9492.343979	1.266760	0.546898	5350.742187
9492.345019	1.234636	0.546898	6634.763672
9492.345913	1.207756	0.546898	7714.498047
9492.346782	1.182579	0.546898	8742.159180
9492.347862	1.153389	0.546898	9987.818359
9492.348802	1.129651	0.546898	11049.690430
9492.349677	1.112527	0.546898	12023.151367
9492.350648	0.890350	0.546898	12887.681641
9492.351678	0.119147	0.546898	13010.402344
9492.352561	0.083752	0.546898	13084.355469
9492.353417	0.083903	0.546898	13156.175781
9492.354454	0.083895	0.546898	13243.174805
9492.355396	0.083804	0.546898	13322.118164
9492.356273	0.083899	0.546898	13395.697266
9492.357201	0.083855	0.546898	13473.514648
9492.358263	0.083899	0.546898	13562.615234
9492.359157	0.083914	0.546898	13637.633789
9492.360023	0.083844	0.546898	13710.243164
9493.222884	0.900004	0.689235	415.801666
9493.223818	1.319601	0.689235	1648.308838
9493.224703	1.327024	0.689235	2822.725098
9493.225637	1.299181	0.689235	4036.160156
9493.226596	1.268987	0.689235	5253.118652
9493.227525	1.240305	0.689235	6405.362305
9493.228393	1.213828	0.689235	7458.964844
9493.229337	1.186703	0.689235	8579.211914
9493.230280	1.160138	0.689235	9673.221680
9493.231175	1.136635	0.689235	10690.509766
9493.232152	1.116790	0.689235	11781.613281
9493.233119	1.049026	0.689235	12796.021484
9493.234050	0.235455	0.689235	13015.230469
9493.234910	0.084521	0.689235	13087.918945
9493.235885	0.083844	0.689235	13169.666992
9493.236838	0.083917	0.689235	13249.639648
9493.237723	0.083965	0.689235	13323.948242
9493.238633	0.083870	0.689235	13400.269531
9493.239559	0.083899	0.689235	13477.959961
9493.240487	0.083906	0.689235	13555.825195
9493.241360	0.083961	0.689235	13629.123047
9493.242280	0.083910	0.689235	13706.320312
9494.406588	0.846973	0.546689	356.575470
9494.407534	1.312321	0.546689	1598.030762
9494.408499	1.325936	0.546689	2877.559326
9494.409415	1.298452	0.546689	4066.941406
9494.410294	1.270316	0.546689	5183.549316
9494.411318	1.239412	0.546689	6452.707031
9494.412222	1.211792	0.546689	7548.166992
9494.413104	1.186238	0.546689	8594.428711
9494.414000	1.160815	0.546689	9634.519531
9494.415042	1.133752	0.546689	10815.889648
9494.415935	1.116639	0.546689	11813.048828
9494.416806	1.087247	0.546689	12760.041016
9494.417841	0.250781	0.546689	13019.599609
9494.418741	0.084126	0.546689	13095.312500
9494.419635	0.083954	0.546689	13170.367187
9494.420513	0.084045	0.546689	13244.159180
9494.421538	0.084023	0.546689	13330.283203
9494.422429	0.083998	0.546689	13405.125000
9494.423304	0.083932	0.546689	13478.565430
9494.424265	0.083947	0.546689	13559.238281
9494.425228	0.083936	0.546689	13640.068359
9494.426144	0.083925	0.546689	13716.943359
9495.290332	0.888149	0.683241	406.772430
9495.291227	1.316056	0.683241	1584.642456
9495.292094	1.327778	0.683241	2735.826172
9495.293079	1.299404	0.683241	4015.739502
9495.294040	1.269302	0.683241	5235.538574
9495.294931	1.241517	0.683241	6341.730469
9495.295874	1.213949	0.683241	7486.484375
9495.296811	1.186099	0.683241	8597.858398
9495.297743	1.160306	0.683241	9679.263672
9495.298619	1.136722	0.683241	10675.032227
9495.299577	1.117277	0.683241	11745.382812
9495.300541	1.067344	0.683241	12774.301758
9495.301476	0.262712	0.683241	13019.937500
9495.302336	0.084800	0.683241	13092.865234
9495.303317	0.083873	0.683241	13175.144531
9495.304270	0.083818	0.683241	13255.023437
9495.305157	0.083870	0.683241	13329.416016
9495.306096	0.083914	0.683241	13408.210937
9495.307159	0.083939	0.683241	13497.438477
9495.308162	0.083961	0.683241	13581.651367
9495.309036	0.083939	0.683241	13655.014648
9495.310024	0.083994	0.683241	13738.000977
9496.473046	0.871476	0.553267	388.678223
9496.473916	1.313829	0.553267	1531.709717
9496.474838	1.328269	0.553267	2756.373779
9496.475789	1.300107	0.553267	3992.775879
9496.476724	1.270060	0.553267	5180.281738
9496.477621	1.242502	0.553267	6294.806152
9496.478539	1.214674	0.553267	7409.876953
9496.479503	1.186978	0.553267	8554.123047
9496.480429	1.161467	0.553267	9629.641602
9496.481297	1.137938	0.553267	10617.372070
9496.482256	1.118910	0.553267	11690.406250
9496.483196	1.095077	0.553267	12719.778320
9496.484065	0.359637	0.553267	13032.303711
9496.485003	0.085708	0.553267	13112.698242
9496.485929	0.083833	0.553267	13190.327148
9496.486850	0.083914	0.553267	13267.611328
9496.487711	0.083888	0.553267	13339.838867
9496.488688	0.083844	0.553267	13421.754883
9496.489639	0.083925	0.553267	13501.567383
9496.490538	0.083925	0.553267	13577.015625
9496.491450	0.084001	0.553267	13653.625000
9496.492412	0.083921	0.553267	13734.356445
9497.359929	0.958828	0.679760	528.314331
9497.361002	1.328804	0.679760	1954.120728
9497.361898	1.320864	0.679760	3137.615234
9497.362784	1.291959	0.679760	4282.291016
9497.363881	1.258520	0.679760	5662.887695
9497.364850	1.229095	0.679760	6853.881348
9497.365721	1.203007	0.679760	7901.700195
9497.366754	1.173765	0.679760	9114.199219
9497.367797	1.145750	0.679760	10309.215820
9497.368696	1.125092	0.679760	11320.672852
9497.369655	1.104448	0.679760	12379.838867
9497.370713	0.521261	0.679760	12931.333008
9497.371642	0.088096	0.679760	13013.173828
9497.372504	0.083892	0.679760	13085.488281
9497.373580	0.083983	0.679760	13175.854492
9497.374587	0.083925	0.679760	13260.366211
9497.375462	0.083866	0.679760	13333.749023
9497.376446	0.084001	0.679760	13416.406250
9497.377504	0.083870	0.679760	13505.140625
9497.378413	0.083859	0.679760	13581.368164
9497.379270	0.084082	0.679760	13653.426758
9497.380346	0.084009	0.679760	13743.820312
9498.536418	0.896587	0.561872	415.119720
9498.537306	1.316265	0.561872	1583.962769
9498.538169	1.328203	0.561872	2730.202148
9498.539148	1.299712	0.561872	4002.620117
9498.540115	1.269569	0.561872	5230.293457
9498.541007	1.241697	0.561872	6337.886719
9498.541919	1.214535	0.561872	7445.542480
9498.542889	1.186652	0.561872	8596.594727
9498.543816	1.160951	0.561872	9672.795898
9498.544689	1.137404	0.561872	10665.749023
9498.545629	1.118536	0.561872	11717.172852
9498.546550	1.084413	0.561872	12715.916992
9498.547484	0.299147	0.561872	12995.320312
9498.548358	0.085214	0.561872	13069.796875
9498.549335	0.083829	0.561872	13151.698242
9498.550287	0.083870	0.561872	13231.541992
9498.551177	0.083870	0.561872	13306.185547
9498.552072	0.083811	0.561872	13381.196289
9498.553015	0.083939	0.561872	13460.350586
9498.553941	0.084016	0.561872	13538.149414
9498.554801	0.083925	0.561872	13610.324219
9498.555774	0.083921	0.561872	13691.979492
9499.427385	0.958264	0.693352	529.920105
9499.428292	1.324039	0.693352	1730.823730
9499.429216	1.324373	0.693352	2954.543945
9499.430084	1.296460	0.693352	4079.871094
9499.431150	1.264135	0.693352	5427.438477
9499.432042	1.236511	0.693352	6530.406250
9499.432920	1.210485	0.693352	7593.211914
9499.433932	1.181979	0.693352	8789.374023
9499.434870	1.155557	0.693352	9873.286133
9499.435799	1.131650	0.693352	10924.589844
9499.436664	1.114589	0.693352	11888.708984
9499.437720	0.946168	0.693352	12887.862305
9499.438605	0.160609	0.693352	13030.000977
9499.439469	0.083917	0.693352	13102.505859
9499.440442	0.083972	0.693352	13184.210937
9499.441389	0.083947	0.693352	13263.708008
9499.442295	0.083936	0.693352	13339.753906
9499.443171	0.083961	0.693352	13413.303711
9499.444187	0.083969	0.693352	13498.615234
9499.445089	0.083881	0.693352	13574.275391
9499.445961	0.083969	0.693352	13647.496094
9499.446841	0.083917	0.693352	13721.343750
9500.603926	0.921284	0.558182	468.012360
9500.604828	1.321066	0.558182	1659.613525
9500.605693	1.326559	0.558182	2807.086914
9500.606781	1.294937	0.558182	4215.978027
9500.607775	1.263157	0.558182	5471.555664
9500.608653	1.235966	0.558182	6556.733398
9500.609652	1.206218	0.558182	7761.745605
9500.610716	1.176368	0.558182	9013.401367
9500.611607	1.151635	0.558182	10039.507812
9500.612508	1.129244	0.558182	11056.957031
9500.613597	1.106550	0.558182	12261.990234
9500.614558	0.713416	0.558182	12947.582031
9500.615425	0.102953	0.558182	13036.841797
9500.616444	0.083899	0.558182	13122.334961
9500.617481	0.083932	0.558182	13209.372070
9500.618373	0.083976	0.558182	13284.278320
9500.619299	0.084009	0.558182	13362.070312
9500.620375	0.083947	0.558182	13452.396484
9500.621317	0.083994	0.558182	13531.518555
9500.622182	0.083965	0.558182	13604.148437
9500.623253	0.084104	0.558182	13694.223633
9500.624255	0.083910	0.558182	13778.301758
9501.492691	0.860896	0.693799	378.794250
9501.493560	1.312456	0.693799	1519.318604
9501.494477	1.328262	0.693799	2737.334473
9501.495401	1.300356	0.693799	3938.863770
9501.496356	1.270360	0.693799	5152.057617
9501.497257	1.242689	0.693799	6271.720703
9501.498177	1.214799	0.693799	7389.335449
9501.499148	1.187003	0.693799	8541.916016
9501.500041	1.162328	0.693799	9579.875000
9501.500962	1.137715	0.693799	10627.710937
9501.501935	1.118199	0.693799	11715.718750
9501.502863	1.092191	0.693799	12729.272461
9501.503731	0.339672	0.693799	13024.107422
9501.504661	0.085188	0.693799	13103.332031
9501.505612	0.083870	0.693799	13183.091797
9501.506534	0.083925	0.693799	13260.470703
9501.507408	0.083840	0.693799	13333.747070
9501.508374	0.083881	0.693799	13414.775391
9501.509328	0.083925	0.693799	13494.839844
9501.510217	0.083936	0.693799	13569.458984
9501.511100	0.083877	0.693799	13643.522461
9501.512045	0.083855	0.693799	13722.765625
9502.671314	0.880832	0.560027	389.327972
9502.672240	1.317689	0.560027	1609.508179
9502.673104	1.327343	0.560027	2756.332031
9502.674160	1.296951	0.560027	4125.912109
9502.675046	1.268731	0.560027	5250.007324
9502.675921	1.241803	0.560027	6336.584961
9502.676934	1.212250	0.560027	7564.593750
9502.677840	1.184993	0.560027	8638.197266
9502.678756	1.159933	0.560027	9700.695312
9502.679643	1.135983	0.560027	10708.312500
9502.680690	1.115405	0.560027	11876.141602
9502.681590	1.052142	0.560027	12823.069336
9502.682474	0.243303	0.560027	13038.149414
9502.683448	0.084752	0.560027	13120.698242
9502.684402	0.083895	0.560027	13200.734375
9502.685323	0.083848	0.560027	13277.958008
9502.686182	0.083917	0.560027	13350.042969
9502.687205	0.083917	0.560027	13435.890625
9502.688082	0.083914	0.560027	13509.482422
9502.688945	0.083998	0.560027	13581.972656
9502.689864	0.083972	0.560027	13659.143555
9502.690867	0.083954	0.560027	13743.349609
9503.559228	0.932633	0.695563	517.611328
9503.560284	1.328137	0.695563	1920.124268
9503.561184	1.321062	0.695563	3109.080078
9503.562047	1.292919	0.695563	4224.869141
9503.563151	1.259495	0.695563	5615.351074
9503.564150	1.228649	0.695563	6842.770996
9503.565023	1.202629	0.695563	7892.666504
9503.566009	1.174955	0.695563	9051.171875
9503.567069	1.146394	0.695563	10266.349609
9503.567962	1.125546	0.695563	11271.461914
9503.568854	1.105408	0.695563	12257.485352
9503.569966	0.558790	0.695563	12878.860352
9503.570915	0.088645	0.695563	12962.984375
9503.571780	0.083925	0.695563	13035.579102
9503.572807	0.084042	0.695563	13121.889648
9503.573844	0.083998	0.695563	13208.995117
9503.574737	0.083943	0.695563	13283.956055
9503.575662	0.083917	0.695563	13361.579102
9503.576736	0.084027	0.695563	13451.824219
9503.577682	0.084034	0.695563	13531.320312
9503.578543	0.083910	0.695563	13603.566406
9503.579595	0.084056	0.695563	13691.994141
9504.737760	0.900465	0.564836	407.910675
9504.738721	1.321417	0.564836	1677.792603
9504.739657	1.325522	0.564836	2918.481445
9504.740524	1.298452	0.564836	4044.239502
9504.741508	1.268178	0.564836	5292.125977
9504.742444	1.239258	0.564836	6452.071289
9504.743313	1.212865	0.564836	7506.050781
9504.744293	1.185461	0.564836	8667.802734
9504.745196	1.159061	0.564836	9714.435547
9504.746127	1.134902	0.564836	10771.029297
9504.747008	1.117493	0.564836	11755.540039
9504.747985	1.051175	0.564836	12782.538086
9504.748950	0.233668	0.564836	13008.028320
9504.749845	0.084272	0.564836	13083.452148
9504.750756	0.083873	0.564836	13159.860352
9504.751721	0.083921	0.564836	13240.843750
9504.752647	0.083947	0.564836	13318.578125
9504.753508	0.083950	0.564836	13390.859375
9504.754436	0.083990	0.564836	13468.802734
9504.755398	0.083932	0.564836	13549.544922
9504.756299	0.083873	0.564836	13625.115234
9504.757179	0.083976	0.564836	13699.013672
9505.627602	0.869535	0.699060	382.595367
9505.628468	1.312639	0.699060	1519.340820
9505.629563	1.323875	0.699060	2968.983398
9505.630574	1.292655	0.699060	4275.857422
9505.631454	1.264724	0.699060	5388.814453
9505.632464	1.234175	0.699060	6635.331055
9505.633518	1.203065	0.699060	7903.361816
9505.634402	1.177474	0.699060	8944.249023
9505.635273	1.152429	0.699060	9948.014648
9505.636358	1.127054	0.699060	11170.869141
9505.637332	1.106386	0.699060	12248.488281
9505.638211	0.808107	0.699060	12958.814453
9505.639236	0.102762	0.699060	13064.145508
9505.640279	0.083833	0.699060	13151.583008
9505.641164	0.083925	0.699060	13225.856445
9505.642100	0.084001	0.699060	13304.481445
9505.643174	0.084034	0.699060	13394.734375
9505.644113	0.083976	0.699060	13473.587891
9505.644984	0.083958	0.699060	13546.714844
9505.646039	0.083954	0.699060	13635.286133
9505.647052	0.083921	0.699060	13720.297852
9505.647946	0.083969	0.699060	13795.365234
9506.803135	0.856088	0.579342	368.117676
9506.804003	1.311240	0.579342	1506.274170
9506.804979	1.327353	0.579342	2801.770996
9506.805917	1.299591	0.579342	4020.787354
9506.806802	1.271213	0.579342	5145.811523
9506.807730	1.243206	0.579342	6299.506348
9506.808660	1.214359	0.579342	7428.860352
9506.809586	1.187322	0.579342	8528.320312
9506.810487	1.162687	0.579342	9575.901367
9506.811407	1.137960	0.579342	10622.824219
9506.812374	1.118566	0.579342	11704.477539
9506.813273	1.096597	0.579342	12690.318359
9506.814193	0.368485	0.579342	13029.324219
9506.815156	0.085236	0.579342	13111.406250
9506.816075	0.083936	0.579342	13188.542969
9506.816937	0.083873	0.579342	13260.841797
9506.817888	0.083873	0.579342	13340.605469
9506.818826	0.083899	0.579342	13419.302734
9506.819747	0.083888	0.579342	13496.563477
9506.820606	0.083866	0.579342	13568.604492
9506.821559	0.083833	0.579342	13648.497070
9506.822513	0.083826	0.579342	13728.466797
9507.693093	0.929597	0.718110	478.742554
9507.694012	1.322241	0.718110	1693.882202
9507.694887	1.326156	0.718110	2854.268555
9507.695884	1.296475	0.718110	4146.853516
9507.696908	1.263732	0.718110	5440.915039
9507.697794	1.236248	0.718110	6536.230469
9507.698658	1.209745	0.718110	7581.450195
9507.699734	1.179976	0.718110	8851.103516
9507.700643	1.154564	0.718110	9900.602539
9507.701522	1.131738	0.718110	10895.400391
9507.702510	1.112725	0.718110	11994.772461
9507.703525	0.882689	0.718110	12890.702148
9507.704421	0.134110	0.718110	13010.865234
9507.705282	0.083807	0.718110	13083.023437
9507.706352	0.083910	0.718110	13172.806641
9507.707298	0.083903	0.718110	13252.178711
9507.708174	0.083895	0.718110	13325.670898
9507.709135	0.084031	0.718110	13406.424805
9507.710156	0.083818	0.718110	13492.002930
9507.711043	0.083910	0.718110	13566.430664
9507.711918	0.083932	0.718110	13639.871094
9507.712889	0.083932	0.718110	13721.369141
9508.869646	0.909781	0.578948	459.439636
9508.870552	1.321146	0.578948	1656.398193
9508.871418	1.326764	0.578948	2805.375977
9508.872487	1.295017	0.578948	4189.749023
9508.873487	1.263322	0.578948	5453.070312
9508.874379	1.236200	0.578948	6555.760742
9508.875363	1.207207	0.578948	7743.652344
9508.876421	1.176951	0.578948	8988.866211
9508.877321	1.152015	0.578948	10025.679687
9508.878182	1.129940	0.578948	10998.558594
9508.879261	1.108220	0.578948	12194.328125
9508.880254	0.738281	0.578948	12927.441406
9508.881137	0.105326	0.578948	13020.444336
9508.882151	0.083906	0.578948	13105.525391
9508.883205	0.083921	0.578948	13193.977539
9508.884081	0.083928	0.578948	13267.499023
9508.884955	0.083936	0.578948	13340.858398
9508.886056	0.083990	0.578948	13433.332031
9508.887022	0.083972	0.578948	13514.449219
9508.887892	0.083928	0.578948	13587.466797
9508.888895	0.083954	0.578948	13671.672852
9508.889926	0.084005	0.578948	13758.282227
9509.759412	0.854451	0.720636	359.723755
9509.760410	1.320051	0.720636	1677.135010
9509.761341	1.325211	0.720636	2910.906738
9509.762221	1.298522	0.720636	4053.605957
9509.763182	1.269221	0.720636	5273.327637
9509.764124	1.238932	0.720636	6440.401367
9509.765040	1.211660	0.720636	7550.282227
9509.765907	1.185429	0.720636	8578.048828
9509.766939	1.158442	0.720636	9773.561523
9509.767843	1.134067	0.720636	10798.757812
9509.768742	1.116720	0.720636	11802.689453
9509.769618	1.059514	0.720636	12730.824219
9509.770619	0.234584	0.720636	12965.642578
9509.771560	0.084174	0.720636	13044.849609
9509.772450	0.083925	0.720636	13119.541992
9509.773354	0.083910	0.720636	13195.396484
9509.774314	0.083917	0.720636	13275.957031
9509.775208	0.083976	0.720636	13351.031250
9509.776139	0.083990	0.720636	13429.226562
9509.777091	0.083899	0.720636	13509.098633
9509.778015	0.083895	0.720636	13586.618164
9509.778880	0.083954	0.720636	13659.238281
9510.938040	0.870916	0.579040	367.526367
9510.939163	1.325493	0.579040	1856.055298
9510.940125	1.321208	0.579040	3127.057861
9510.940994	1.293937	0.579040	4251.488770
9510.942029	1.261238	0.579040	5556.870117
9510.943071	1.229520	0.579040	6838.030273
9510.943959	1.203058	0.579040	7906.345703
9510.944873	1.176716	0.579040	8981.864258
9510.945969	1.147240	0.579040	10239.239258
9510.946916	1.125568	0.579040	11305.151367
9510.947792	1.106147	0.579040	12274.136719
9510.948870	0.601139	0.579040	12922.164062
9510.949888	0.088033	0.579040	13011.782227
9510.950780	0.083811	0.579040	13086.541992
9510.951745	0.083910	0.579040	13167.514648
9510.952802	0.083936	0.579040	13256.234375
9510.953726	0.083870	0.579040	13333.729492
9510.954598	0.083976	0.579040	13406.956055
9510.955591	0.083943	0.579040	13490.311523
9510.956590	0.083892	0.579040	13574.119141
9510.957470	0.083892	0.579040	13647.943359
9510.958459	0.083950	0.579040	13730.969727
9511.825855	0.854630	0.724072	365.781708
9511.826719	1.310618	0.724072	1498.155396
9511.827701	1.326753	0.724072	2801.026855
9511.828658	1.298621	0.724072	4043.806641
9511.829555	1.269891	0.724072	5182.899414
9511.830475	1.241759	0.724072	6325.317871
9511.831451	1.212781	0.724072	7508.992187
9511.832346	1.186534	0.724072	8570.940430
9511.833245	1.161475	0.724072	9615.106445
9511.834197	1.135726	0.724072	10696.318359
9511.835143	1.117200	0.724072	11753.189453
9511.836040	1.092264	0.724072	12732.950195
9511.836960	0.310840	0.724072	13018.922852
9511.837918	0.084657	0.724072	13100.024414
9511.838836	0.083822	0.724072	13176.972656
9511.839706	0.083939	0.724072	13250.000000
9511.840663	0.083892	0.724072	13330.284180
9511.841597	0.083917	0.724072	13408.663086
9511.842521	0.084016	0.724072	13486.293945
9511.843385	0.083888	0.724072	13558.773437
9511.844353	0.083932	0.724072	13640.019531
9511.845310	0.083921	0.724072	13720.332031
9513.005530	0.875592	0.583999	398.394348
9513.006543	1.324157	0.583999	1739.764893
9513.007475	1.324102	0.583999	2973.827637
9513.008351	1.297203	0.583999	4110.177734
9513.009367	1.265742	0.583999	5396.171875
9513.010268	1.236691	0.583999	6510.430176
9513.011191	1.209613	0.583999	7626.902832
9513.012068	1.183352	0.583999	8664.702148
9513.013117	1.155403	0.583999	9876.719727
9513.014016	1.131998	0.583999	10894.385742
9513.014940	1.114438	0.583999	11924.126953
9513.015806	0.996976	0.583999	12787.508789
9513.016823	0.173456	0.583999	12963.913086
9513.017747	0.083873	0.583999	13041.412109
9513.018613	0.083925	0.583999	13114.090820
9513.019634	0.083925	0.583999	13199.777344
9513.020517	0.083925	0.583999	13273.882812
9513.021419	0.083983	0.583999	13349.635742
9513.022292	0.083969	0.583999	13422.940430
9513.023255	0.083976	0.583999	13503.809570
9513.024198	0.083914	0.583999	13582.940430
9513.025085	0.083954	0.583999	13657.407227
9513.890238	0.849851	0.736616	362.036560
9513.891108	1.310515	0.736616	1502.184570
9513.892226	1.323105	0.736616	2981.416504
9513.893193	1.293728	0.736616	4232.451172
9513.894066	1.265874	0.736616	5337.559082
9513.895101	1.234025	0.736616	6614.774414
9513.896147	1.203157	0.736616	7873.276367
9513.897044	1.177562	0.736616	8929.549805
9513.897998	1.151829	0.736616	10028.394531
9513.899051	1.126564	0.736616	11214.666016
9513.899994	1.106287	0.736616	12257.894531
9513.900867	0.794359	0.736616	12951.370117
9513.901926	0.098818	0.736616	13056.018555
9513.902934	0.083881	0.736616	13140.570312
9513.903815	0.083983	0.736616	13214.559570
9513.904792	0.084023	0.736616	13296.650391
9513.905841	0.083979	0.736616	13384.745117
9513.906751	0.083958	0.736616	13461.146484
9513.907611	0.083972	0.736616	13533.362305
9513.908684	0.083987	0.736616	13623.480469
9513.909687	0.083958	0.736616	13707.689453
9513.910559	0.083965	0.736616	13780.907227
9515.071940	0.854030	0.588918	366.378662
9515.072859	1.312617	0.588918	1572.673828
9515.073822	1.326705	0.588918	2850.291016
9515.074751	1.298778	0.588918	4056.855957
9515.075620	1.270939	0.588918	5161.301758
9515.076551	1.241624	0.588918	6317.253418
9515.077502	1.212832	0.588918	7470.656738
9515.078437	1.186366	0.588918	8579.909180
9515.079319	1.161544	0.588918	9604.390625
9515.080293	1.136129	0.588918	10710.980469
9515.081253	1.117383	0.588918	11783.667969
9515.082148	1.088090	0.588918	12757.507812
9515.083064	0.311217	0.588918	13042.583008
9515.084000	0.084694	0.588918	13121.856445
9515.084938	0.083892	0.588918	13200.546875
9515.085817	0.083994	0.588918	13274.377930
9515.086739	0.083914	0.588918	13351.746094
9515.087677	0.083958	0.588918	13430.498047
9515.088597	0.083983	0.588918	13507.762695
9515.089472	0.083958	0.588918	13581.225586
9515.090432	0.084020	0.588918	13661.884766
9515.091369	0.083994	0.588918	13740.586914
9515.959758	0.863199	0.742389	381.534180
9515.960620	1.311453	0.742389	1512.006348
9515.961677	1.324541	0.742389	2912.046143
9515.962710	1.293534	0.742389	4248.266602
9515.963584	1.265259	0.742389	5354.102539
9515.964557	1.235914	0.742389	6556.647461
9515.965609	1.204175	0.742389	7823.439453
9515.966533	1.177698	0.742389	8911.631836
9515.967415	1.153836	0.742389	9929.314453
9515.968382	1.130098	0.742389	11022.119141
9515.969406	1.108550	0.742389	12157.274414
9515.970300	0.868748	0.742389	12933.934570
9515.971168	0.131927	0.742389	13048.447266
9515.972258	0.083837	0.742389	13139.829102
9515.973179	0.083903	0.742389	13217.103516
9515.974058	0.083844	0.742389	13290.802734
9515.975043	0.084038	0.742389	13373.580078
9515.976049	0.083932	0.742389	13458.015625
9515.976930	0.083939	0.742389	13531.965820
9515.977790	0.083947	0.742389	13604.160156
9515.978873	0.083994	0.742389	13695.125977
9515.979780	0.083936	0.742389	13771.255859
9517.138382	0.857563	0.593095	367.894714
9517.139250	1.311405	0.593095	1506.194336
9517.140186	1.327562	0.593095	2748.792480
9517.141152	1.299393	0.593095	4004.006348
9517.142079	1.270382	0.593095	5181.650391
9517.142943	1.242598	0.593095	6255.254883
9517.143897	1.214136	0.593095	7413.540527
9517.144854	1.186864	0.593095	8549.369141
9517.145752	1.162108	0.593095	9592.942383
9517.146675	1.137671	0.593095	10643.012695
9517.147634	1.118372	0.593095	11715.531250
9517.148569	1.091254	0.593095	12735.853516
9517.149452	0.320757	0.593095	13019.082031
9517.150444	0.084576	0.593095	13102.981445
9517.151383	0.083873	0.593095	13181.738281
9517.152314	0.083958	0.593095	13259.902344
9517.153177	0.083961	0.593095	13332.361328
9517.154130	0.083961	0.593095	13412.375977
9517.155036	0.083943	0.593095	13488.427734
9517.155919	0.083947	0.593095	13562.552734
9517.156866	0.083932	0.593095	13642.036133
9517.157789	0.083939	0.593095	13719.511719
9518.026185	0.859153	0.745531	376.308960
9518.027058	1.311643	0.745531	1521.373291
9518.028010	1.326867	0.745531	2784.550293
9518.029071	1.295973	0.745531	4159.577637
9518.029959	1.267291	0.745531	5284.932129
9518.030821	1.240408	0.745531	6354.163574
9518.031859	1.209324	0.745531	7609.441406
9518.032819	1.181862	0.745531	8744.028320
9518.033697	1.157791	0.745531	9760.568359
9518.034629	1.133533	0.745531	10817.020508
9518.035694	1.112267	0.745531	12001.584961
9518.036588	0.985115	0.745531	12882.277344
9518.037460	0.181110	0.745531	13040.205078
9518.038517	0.083947	0.745531	13128.936523
9518.039485	0.083855	0.745531	13210.108398
9518.040361	0.083969	0.745531	13283.665039
9518.041267	0.083972	0.745531	13359.744141
9518.042338	0.083917	0.745531	13449.619141
9518.043213	0.083815	0.745531	13522.957031
9518.044074	0.083917	0.745531	13595.209961
9518.045111	0.084005	0.745531	13682.323242
9518.046073	0.083936	0.745531	13763.069336
9519.205839	0.875768	0.585772	387.965118
9519.206715	1.313613	0.585772	1538.690308
9519.207717	1.326054	0.585772	2867.395996
9519.208776	1.294296	0.585772	4238.055176
9519.209675	1.265306	0.585772	5375.565430
9519.210540	1.237610	0.585772	6446.097656
9519.211654	1.205603	0.585772	7789.139648
9519.212621	1.178269	0.585772	8928.525391
9519.213491	1.154297	0.585772	9932.763672
9519.214541	1.128669	0.585772	11117.866211
9519.215592	1.106627	0.585772	12280.931641
9519.216478	0.780000	0.585772	12972.011719
9519.217408	0.112079	0.585772	13076.245117
9519.218480	0.083859	0.585772	13166.141602
9519.219415	0.083884	0.585772	13244.573242
9519.220274	0.083881	0.585772	13316.626953
9519.221307	0.083983	0.585772	13403.381836
9519.222333	0.083855	0.585772	13489.416992
9519.223225	0.083947	0.585772	13564.296875
9519.224175	0.083994	0.585772	13644.091797
9519.225226	0.083987	0.585772	13732.362305
9519.226145	0.083947	0.585772	13809.508789
9520.093634	0.854487	0.738968	368.284027
9520.094514	1.312017	0.738968	1522.858643
9520.095461	1.327584	0.738968	2780.081055
9520.096399	1.299877	0.738968	3999.365234
9520.097327	1.270250	0.738968	5178.157227
9520.098197	1.243085	0.738968	6259.640625
9520.099150	1.214015	0.738968	7416.596680
9520.100089	1.186520	0.738968	8530.738281
9520.101025	1.160991	0.738968	9617.425781
9520.101907	1.137136	0.738968	10620.379883
9520.102870	1.118265	0.738968	11697.269531
9520.103802	1.092290	0.738968	12715.284180
9520.104686	0.341499	0.738968	13017.168945
9520.105688	0.084727	0.738968	13102.065430
9520.106620	0.083910	0.738968	13180.269531
9520.107549	0.083899	0.738968	13258.211914
9520.108415	0.083888	0.738968	13330.858398
9520.109387	0.083961	0.738968	13412.468750
9520.110334	0.083851	0.738968	13491.875977
9520.111224	0.083914	0.738968	13566.558594
9520.112088	0.083899	0.738968	13639.046875
9520.113057	0.083855	0.738968	13720.302734
9521.272275	0.877764	0.580136	392.360382
9521.273154	1.314174	0.580136	1547.518921
9521.274018	1.327991	0.580136	2694.902832
9521.275144	1.296207	0.580136	4154.432129
9521.276069	1.266339	0.580136	5325.795898
9521.276956	1.239269	0.580136	6425.027344
9521.277942	1.209990	0.580136	7618.077637
9521.278949	1.180975	0.580136	8807.320312
9521.279845	1.156348	0.580136	9843.408203
9521.280709	1.133005	0.580136	10822.325195
9521.281807	1.111875	0.580136	12043.164062
9521.282716	0.947194	0.580136	12904.163086
9521.283586	0.163367	0.580136	13046.291992
9521.284599	0.084038	0.580136	13131.422852
9521.285600	0.083782	0.580136	13215.288086
9521.286478	0.083881	0.580136	13288.935547
9521.287342	0.083961	0.580136	13361.477539
9521.288433	0.084012	0.580136	13453.134766
9521.289350	0.083932	0.580136	13530.100586
9521.290225	0.083979	0.580136	13603.583008
9521.291195	0.083943	0.580136	13685.007812
9521.292208	0.083928	0.580136	13770.027344
9522.161098	0.859146	0.733966	378.883179
9522.161977	1.312639	0.733966	1532.692993
9522.162887	1.327910	0.733966	2741.091309
9522.163847	1.300302	0.733966	3989.380859
9522.164774	1.270693	0.733966	5167.313477
9522.165643	1.243374	0.733966	6247.805664
9522.166567	1.214755	0.733966	7370.238770
9522.167530	1.187311	0.733966	8513.619141
9522.168450	1.162079	0.733966	9582.731445
9522.169326	1.138279	0.733966	10579.863281
9522.170296	1.118947	0.733966	11665.241211
9522.171226	1.096520	0.733966	12685.004883
9522.172095	0.387418	0.733966	13021.670898
9522.173076	0.085697	0.733966	13105.739258
9522.173992	0.083866	0.733966	13182.560547
9522.174916	0.083917	0.733966	13260.099609
9522.175776	0.083866	0.733966	13332.224609
9522.176722	0.083950	0.733966	13411.641602
9522.177672	0.083881	0.733966	13491.328125
9522.178563	0.083925	0.733966	13566.104492
9522.179477	0.083921	0.733966	13642.808594
9522.180438	0.083873	0.733966	13723.411133
9522.181365	0.083862	0.733966	13801.151367
9523.339742	0.895887	0.575431	410.316437
9523.340637	1.316638	0.575431	1588.707642
9523.341509	1.327255	0.575431	2746.073730
9523.342511	1.298698	0.575431	4047.368652
9523.343428	1.269650	0.575431	5211.637695
9523.344303	1.242407	0.575431	6298.744141
9523.345330	1.211829	0.575431	7543.291992
9523.346226	1.185740	0.575431	8605.714844
9523.347160	1.160317	0.575431	9689.451172
9523.348033	1.136364	0.575431	10681.496094
9523.349046	1.116925	0.575431	11812.941406
9523.349983	1.066007	0.575431	12811.790039
9523.350861	0.264642	0.575431	13044.146484
9523.351768	0.084924	0.575431	13121.172852
9523.352695	0.083899	0.575431	13198.947266
9523.353618	0.083943	0.575431	13276.426758
9523.354479	0.083961	0.575431	13348.717773
9523.355512	0.083716	0.575431	13435.196289
9523.356424	0.083851	0.575431	13511.668945
9523.357322	0.083877	0.575431	13586.990234
9523.358187	0.083925	0.575431	13659.584961
9523.359182	0.083899	0.575431	13743.064453
9524.229564	0.850030	0.734405	361.262970
9524.230563	1.316136	0.734405	1676.083252
9524.231618	1.321934	0.734405	3070.723145
9524.232532	1.293116	0.734405	4252.631836
9524.233400	1.264164	0.734405	5349.925781
9524.234522	1.231553	0.734405	6731.728027
9524.235499	1.202424	0.734405	7906.496582
9524.236368	1.177555	0.734405	8929.791992
9524.237434	1.148818	0.734405	10154.432617
9524.238457	1.125136	0.734405	11305.446289
9524.239346	1.105496	0.734405	12288.231445
9524.240287	0.701851	0.734405	12948.672852
9524.241329	0.093149	0.734405	13045.734375
9524.242258	0.083976	0.734405	13123.748047
9524.243121	0.083969	0.734405	13196.212891
9524.244169	0.084027	0.734405	13284.273437
9524.245199	0.083943	0.734405	13370.734375
9524.246066	0.083906	0.734405	13443.481445
9524.247014	0.083987	0.734405	13523.100586
9524.248068	0.083961	0.734405	13611.595703
9524.248983	0.084009	0.734405	13688.463867
9524.249855	0.083936	0.734405	13761.655273
9525.405110	0.845101	0.586754	356.632751
9525.406056	1.315437	0.586754	1601.036133
9525.406998	1.326493	0.586754	2850.592285
9525.407887	1.299576	0.586754	4005.915527
9525.408753	1.271276	0.586754	5106.840332
9525.409736	1.241473	0.586754	6327.208984
9525.410688	1.213085	0.586754	7482.065430
9525.411586	1.187358	0.586754	8548.313477
9525.412514	1.161731	0.586754	9626.399414
9525.413481	1.136265	0.586754	10725.166992
9525.414376	1.118401	0.586754	11726.135742
9525.415313	1.084647	0.586754	12742.450195
9525.416245	0.286893	0.586754	13009.834961
9525.417179	0.084529	0.586754	13088.785156
9525.418065	0.083972	0.586754	13163.184570
9525.418983	0.083961	0.586754	13240.260742
9525.419938	0.083910	0.586754	13320.394531
9525.420863	0.083899	0.586754	13398.000977
9525.421730	0.083936	0.586754	13470.773437
9525.422708	0.083932	0.586754	13552.858398
9525.423644	0.083990	0.586754	13631.473633
9525.424559	0.083947	0.586754	13708.285156
9526.297065	0.877295	0.739097	413.205902
9526.298144	1.325537	0.739097	1843.460449
9526.299044	1.322461	0.739097	3033.675293
9526.299918	1.295365	0.739097	4165.824219
9526.300937	1.263032	0.739097	5452.854004
9526.301918	1.233102	0.739097	6662.526855
9526.302791	1.206823	0.739097	7716.083008
9526.303678	1.180745	0.739097	8763.403320
9526.304788	1.151693	0.739097	10041.783203
9526.305677	1.129233	0.739097	11045.671875
9526.306540	1.112069	0.739097	12005.387695
9526.307592	0.828842	0.739097	12877.329102
9526.308559	0.112280	0.739097	12985.904297
9526.309433	0.083796	0.739097	13059.142578
9526.310295	0.083914	0.739097	13131.476562
9526.311411	0.083965	0.739097	13225.181641
9526.312282	0.083815	0.739097	13298.184570
9526.313161	0.083851	0.739097	13371.889648
9526.314142	0.083917	0.739097	13454.212891
9526.315137	0.083888	0.739097	13537.681641
9526.316025	0.083899	0.739097	13612.183594
9526.316888	0.083899	0.739097	13684.587891
9527.470553	0.890662	0.592902	401.688416
9527.471444	1.315829	0.592902	1574.092041
9527.472312	1.327881	0.592902	2726.692627
9527.473294	1.299448	0.592902	4002.750977
9527.474245	1.269562	0.592902	5210.104492
9527.475143	1.241737	0.592902	6325.184570
9527.476058	1.214407	0.592902	7436.366699
9527.477018	1.186780	0.592902	8575.675781
9527.477950	1.161141	0.592902	9657.859375
9527.478820	1.137469	0.592902	10647.458008
9527.479782	1.118225	0.592902	11723.190430
9527.480708	1.082227	0.592902	12725.332031
9527.481636	0.291471	0.592902	12995.817383
9527.482517	0.085016	0.592902	13070.716797
9527.483493	0.083822	0.592902	13152.527344
9527.484414	0.083928	0.592902	13229.825195
9527.485278	0.083881	0.592902	13302.297852
9527.486258	0.083943	0.592902	13384.561523
9527.487208	0.083888	0.592902	13464.254883
9527.488094	0.083961	0.592902	13538.644531
9527.488965	0.083818	0.592902	13611.650391
9527.489928	0.083870	0.592902	13692.416992
9528.364602	0.942063	0.740942	510.598175
9528.365476	1.320839	0.740942	1665.011108
9528.366348	1.326313	0.740942	2821.556641
9528.367236	1.298676	0.740942	3974.780518
9528.368297	1.266039	0.740942	5318.047852
9528.369195	1.238284	0.740942	6430.026367
9528.370076	1.212081	0.740942	7497.870117
9528.371079	1.183890	0.740942	8685.312500
9528.372009	1.157245	0.740942	9761.550781
9528.372936	1.133284	0.740942	10812.104492
9528.373804	1.115995	0.740942	11780.788086
9528.374872	0.996548	0.740942	12845.101562
9528.375765	0.187584	0.740942	13012.614258
9528.376629	0.083998	0.740942	13085.188477
9528.377611	0.083925	0.740942	13167.602539
9528.378537	0.083870	0.740942	13245.265625
9528.379459	0.083870	0.740942	13322.593750
9528.380333	0.083829	0.740942	13395.860352
9528.381372	0.083870	0.740942	13483.000977
9528.382264	0.083778	0.740942	13557.731445
9528.383136	0.083958	0.740942	13630.942383
9528.384064	0.083862	0.740942	13708.766602
9529.538039	0.904299	0.597514	429.542175
9529.538921	1.316902	0.597514	1591.049561
9529.539918	1.325061	0.597514	2912.135254
9529.540976	1.293164	0.597514	4280.302734
9529.541888	1.263838	0.597514	5432.922852
9529.542750	1.236237	0.597514	6498.558594
9529.543821	1.204980	0.597514	7789.092773
9529.544825	1.176343	0.597514	8970.140625
9529.545722	1.152257	0.597514	10003.714844
9529.546705	1.128563	0.597514	11113.092773
9529.547759	1.105928	0.597514	12278.740234
9529.548660	0.761550	0.597514	12964.897461
9529.549519	0.109175	0.597514	13058.678711
9529.550634	0.083972	0.597514	13152.307617
9529.551598	0.083892	0.597514	13233.178711
9529.552465	0.083862	0.597514	13305.887695
9529.553535	0.083994	0.597514	13395.761719
9529.554564	0.083862	0.597514	13482.055664
9529.555460	0.083859	0.597514	13557.193359
9529.556384	0.083873	0.597514	13634.692383
9529.557439	0.083979	0.597514	13723.291016
9529.558382	0.083829	0.597514	13802.341797
9530.432009	0.906416	0.749112	445.956665
9530.432943	1.320480	0.749112	1679.284790
9530.433817	1.326097	0.749112	2838.293945
9530.434728	1.298833	0.749112	4021.530762
9530.435693	1.268339	0.749112	5245.477539
9530.436622	1.239492	0.749112	6396.965820
9530.437505	1.213077	0.749112	7468.113281
9530.438431	1.185718	0.749112	8566.087891
9530.439398	1.159175	0.749112	9687.009766
9530.440331	1.134653	0.749112	10745.641602
9530.441198	1.117614	0.749112	11714.612305
9530.442176	1.067087	0.749112	12758.223633
9530.443112	0.257179	0.749112	12998.943359
9530.443977	0.084708	0.749112	13072.215820
9530.444951	0.083884	0.749112	13153.918945
9530.445850	0.083862	0.749112	13229.311523
9530.446774	0.083910	0.749112	13306.844727
9530.447645	0.083947	0.749112	13379.961914
9530.448619	0.083947	0.749112	13461.725586
9530.449567	0.083881	0.749112	13541.244141
9530.450461	0.083910	0.749112	13616.259766
9530.451376	0.083969	0.749112	13693.090820
9531.604469	0.900897	0.601579	422.520782
9531.605348	1.316195	0.601579	1579.456299
9531.606211	1.327778	0.601579	2725.329102
9531.607299	1.296453	0.601579	4135.869629
9531.608229	1.266694	0.601579	5313.895508
9531.609103	1.239683	0.601579	6397.377930
9531.610072	1.211104	0.601579	7570.937500
9531.611114	1.181180	0.601579	8801.727539
9531.611997	1.156494	0.601579	9822.912109
9531.612861	1.133459	0.601579	10802.220703
9531.613915	1.112659	0.601579	11974.962891
9531.614866	0.954650	0.601579	12882.834961
9531.615748	0.164172	0.601579	13027.634766
9531.616707	0.083965	0.601579	13108.157227
9531.617737	0.083774	0.601579	13194.445312
9531.618625	0.083862	0.601579	13268.915039
9531.619488	0.083870	0.601579	13341.294922
9531.620549	0.083961	0.601579	13430.377930
9531.621485	0.083844	0.601579	13508.855469
9531.622358	0.083811	0.601579	13582.022461
9531.623289	0.083881	0.601579	13660.115234
9531.624344	0.083811	0.601579	13748.536133
9532.501436	0.854755	0.755142	360.706451
9532.502422	1.317074	0.755142	1659.341309
9532.503349	1.325526	0.755142	2888.104004
9532.504226	1.298826	0.755142	4027.174072
9532.505144	1.270023	0.755142	5193.055176
9532.506091	1.240287	0.755142	6367.606934
9532.507027	1.211935	0.755142	7501.978027
9532.507927	1.186403	0.755142	8569.740234
9532.508839	1.160618	0.755142	9628.223633
9532.509816	1.135151	0.755142	10737.266602
9532.510742	1.117218	0.755142	11771.810547
9532.511611	1.085837	0.755142	12715.403320
9532.512592	0.284055	0.755142	12994.061523
9532.513517	0.084551	0.755142	13072.271484
9532.514379	0.083903	0.755142	13144.595703
9532.515352	0.083906	0.755142	13226.236328
9532.516259	0.083943	0.755142	13302.372070
9532.517175	0.083950	0.755142	13379.270508
9532.518047	0.083826	0.755142	13452.366211
9532.519026	0.083932	0.755142	13534.535156
9532.519984	0.083903	0.755142	13614.914062
9532.520873	0.083895	0.755142	13689.497070
9533.668803	0.847753	0.620524	363.685913
9533.669672	1.311346	0.620524	1503.245972
9533.670560	1.328481	0.620524	2682.937500
9533.671552	1.300166	0.620524	3972.702148
9533.672484	1.270631	0.620524	5156.930176
9533.673362	1.243392	0.620524	6248.628906
9533.674281	1.215399	0.620524	7365.580566
9533.675246	1.187703	0.620524	8511.713867
9533.676177	1.161797	0.620524	9593.346680
9533.677059	1.138187	0.620524	10597.227539
9533.678014	1.119188	0.620524	11666.052734
9533.678960	1.094685	0.620524	12701.625000
9533.679845	0.354763	0.620524	13015.590820
9533.680879	0.084976	0.620524	13103.456055
9533.681786	0.083789	0.620524	13179.453125
9533.682706	0.083807	0.620524	13256.555664
9533.683571	0.083873	0.620524	13329.106445
9533.684547	0.083870	0.620524	13410.962891
9533.685485	0.083851	0.620524	13489.615234
9533.686390	0.083928	0.620524	13565.570312
9533.687269	0.083837	0.620524	13639.262695
9533.688236	0.083888	0.620524	13720.382812
9534.568894	0.863024	0.754816	368.511108
9534.569976	1.323409	0.754816	1800.440063
9534.570972	1.320923	0.754816	3116.079102
9534.571858	1.293252	0.754816	4261.900391
9534.572866	1.261677	0.754816	5533.670898
9534.573924	1.229520	0.754816	6834.503418
9534.574818	1.202479	0.754816	7909.520020
9534.575678	1.176819	0.754816	8921.583984
9534.576799	1.147756	0.754816	10208.218750
9534.577760	1.125527	0.754816	11289.850586
9534.578625	1.106664	0.754816	12247.115234
9534.579665	0.659564	0.754816	12933.062500
9534.580700	0.090531	0.754816	13026.761719
9534.581572	0.083906	0.754816	13099.927734
9534.582483	0.083958	0.754816	13176.413086
9534.583565	0.083888	0.754816	13267.179687
9534.584506	0.083910	0.754816	13346.138672
9534.585377	0.083899	0.754816	13419.214844
9534.586403	0.084012	0.754816	13505.411133
9534.587429	0.083903	0.754816	13591.495117
9534.588321	0.083954	0.754816	13666.381836
9534.589275	0.083987	0.754816	13746.504883
9535.736266	0.859823	0.616842	373.163177
9535.737139	1.312324	0.616842	1518.822266
9535.738096	1.327222	0.616842	2788.973633
9535.739026	1.299203	0.616842	3997.232422
9535.739955	1.269961	0.616842	5177.026367
9535.740821	1.242631	0.616842	6253.144531
9535.741793	1.214110	0.616842	7433.259766
9535.742756	1.186666	0.616842	8576.019531
9535.743638	1.161581	0.616842	9600.534180
9535.744551	1.137426	0.616842	10639.003906
9535.745505	1.118170	0.616842	11705.738281
9535.746404	1.095861	0.616842	12690.916992
9535.747294	0.368049	0.616842	13018.480469
9535.748239	0.085140	0.616842	13098.938477
9535.749191	0.083903	0.616842	13178.813477
9535.750082	0.083895	0.616842	13253.564453
9535.751005	0.083833	0.616842	13330.942383
9535.751962	0.083855	0.616842	13411.191406
9535.752876	0.083932	0.616842	13487.905273
9535.753742	0.083815	0.616842	13560.489258
9535.754665	0.083881	0.616842	13637.911133
9535.755608	0.083774	0.616842	13716.910156
9536.635320	0.843303	0.759291	355.873962
9536.636298	1.313126	0.759291	1640.111328
9536.637322	1.323138	0.759291	2995.004883
9536.638216	1.295438	0.759291	4153.126953
9536.639082	1.267079	0.759291	5250.416992
9536.640174	1.234629	0.759291	6598.631836
9536.641104	1.206625	0.759291	7720.792969
9536.641985	1.181678	0.759291	8761.851562
9536.642990	1.154773	0.759291	9922.398437
9536.644000	1.128981	0.759291	11062.668945
9536.644882	1.111201	0.759291	12042.748047
9536.645744	0.950178	0.759291	12861.801758
9536.646814	0.131755	0.759291	13002.780273
9536.647731	0.083749	0.759291	13079.578125
9536.648605	0.083943	0.759291	13152.944336
9536.649563	0.083976	0.759291	13233.393555
9536.650594	0.083877	0.759291	13319.871094
9536.651489	0.083895	0.759291	13394.957031
9536.652356	0.083914	0.759291	13467.709961
9536.653424	0.083987	0.759291	13557.408203
9536.654369	0.083888	0.759291	13636.682617
9536.655252	0.083914	0.759291	13710.778320
9537.802768	0.915938	0.618808	455.220947
9537.803791	1.326438	0.618808	1812.166992
9537.804685	1.323391	0.618808	2995.278564
9537.805644	1.294039	0.618808	4236.262207
9537.806688	1.260905	0.618808	5552.646484
9537.807624	1.232186	0.618808	6705.972656
9537.808492	1.205812	0.618808	7752.617187
9537.809560	1.175918	0.618808	9008.498047
9537.810569	1.148437	0.618808	10167.271484
9537.811465	1.127205	0.618808	11177.247070
9537.812450	1.106693	0.618808	12267.339844
9537.813509	0.614436	0.618808	12918.027344
9537.814415	0.092025	0.618808	13001.402344
9537.815274	0.083855	0.618808	13073.433594
9537.816373	0.084027	0.618808	13165.779297
9537.817360	0.083958	0.618808	13248.645508
9537.818239	0.083833	0.618808	13322.334961
9537.819249	0.083939	0.618808	13407.113281
9537.820306	0.083873	0.618808	13495.767578
9537.821182	0.083961	0.618808	13569.317383
9537.822046	0.083892	0.618808	13641.799805
9537.823136	0.083969	0.618808	13733.325195
9538.702779	0.847548	0.759134	357.665070
9538.703757	1.315338	0.759134	1644.065674
9538.704665	1.325533	0.759134	2847.649902
9538.705583	1.298177	0.759134	4039.376953
9538.706464	1.269738	0.759134	5158.015625
9538.707447	1.240148	0.759134	6377.081055
9538.708384	1.211338	0.759134	7512.104492
9538.709313	1.185029	0.759134	8612.997070
9538.710178	1.160790	0.759134	9617.080078
9538.711146	1.135342	0.759134	10716.090820
9538.712103	1.116654	0.759134	11784.728516
9538.712991	1.088276	0.759134	12751.118164
9538.713925	0.303314	0.759134	13034.414062
9538.714863	0.084496	0.759134	13113.670898
9538.715757	0.083947	0.759134	13188.718750
9538.716656	0.083873	0.759134	13264.121094
9538.717649	0.083921	0.759134	13347.454102
9538.718567	0.083807	0.759134	13424.389648
9538.719441	0.083965	0.759134	13497.775391
9538.720374	0.083844	0.759134	13576.001953
9538.721323	0.083811	0.759134	13655.539062
9538.722250	0.083829	0.759134	13733.249023
9539.869115	0.853846	0.625978	362.030884
9539.870168	1.321538	0.625978	1753.610474
9539.871055	1.325076	0.625978	2928.952637
9539.871922	1.298529	0.625978	4054.777344
9539.872849	1.268771	0.625978	5230.927734
9539.873832	1.238115	0.625978	6447.995117
9539.874757	1.210909	0.625978	7568.086426
9539.875623	1.184714	0.625978	8594.048828
9539.876755	1.155494	0.625978	9902.068359
9539.877656	1.131665	0.625978	10921.698242
9539.878533	1.114819	0.625978	11899.394531
9539.879422	0.991593	0.625978	12780.920898
9539.880472	0.158745	0.625978	12947.603516
9539.881349	0.083877	0.625978	13021.164062
9539.882208	0.083877	0.625978	13093.214844
9539.883297	0.083928	0.625978	13184.612305
9539.884197	0.083833	0.625978	13260.061523
9539.885098	0.083939	0.625978	13335.690430
9539.885974	0.083925	0.625978	13409.208008
9539.887009	0.083866	0.625978	13496.009766
9539.887903	0.083873	0.625978	13570.992187
9539.888778	0.083903	0.625978	13644.407227
9540.770240	0.851554	0.762933	363.613556
9540.771156	1.312947	0.762933	1566.272705
9540.772107	1.326043	0.762933	2827.339111
9540.773033	1.298408	0.762933	4029.665039
9540.773914	1.270166	0.762933	5148.681152
9540.774883	1.240994	0.762933	6351.204102
9540.775828	1.212330	0.762933	7496.856445
9540.776736	1.185938	0.762933	8573.687500
9540.777625	1.161317	0.762933	9606.098633
9540.778581	1.135752	0.762933	10691.877930
9540.779533	1.117317	0.762933	11755.563477
9540.780425	1.092162	0.762933	12729.771484
9540.781369	0.317977	0.762933	13029.942383
9540.782322	0.084606	0.762933	13110.571289
9540.783192	0.083855	0.762933	13183.525391
9540.784073	0.083903	0.762933	13257.443359
9540.785020	0.083892	0.762933	13336.888672
9540.785973	0.083855	0.762933	13416.802734
9540.786860	0.083914	0.762933	13491.234375
9540.787772	0.083921	0.762933	13567.770508
9540.788738	0.083928	0.762933	13648.844727
9540.789667	0.083917	0.762933	13726.803711
9541.936654	0.898048	0.617031	458.902557
9541.937559	1.319524	0.617031	1653.071777
9541.938485	1.325716	0.617031	2880.685303
9541.939348	1.299188	0.617031	4001.884766
9541.940290	1.268617	0.617031	5196.921875
9541.941251	1.239547	0.617031	6388.126953
9541.942144	1.212861	0.617031	7471.211914
9541.943126	1.185337	0.617031	8635.212891
9541.944047	1.158809	0.617031	9702.475586
9541.944989	1.134276	0.617031	10770.963867
9541.945868	1.117515	0.617031	11753.258789
9541.946826	1.061565	0.617031	12770.238281
9541.947787	0.234829	0.617031	12995.909180
9541.948682	0.084371	0.617031	13071.421875
9541.949640	0.083914	0.617031	13151.811523
9541.950579	0.083917	0.617031	13230.609375
9541.951499	0.083928	0.617031	13307.823242
9541.952365	0.083917	0.617031	13380.495117
9541.953304	0.083906	0.617031	13459.283203
9541.954248	0.083895	0.617031	13538.480469
9541.955138	0.083877	0.617031	13613.130859
9541.956024	0.083851	0.617031	13687.422852
9542.837693	0.850265	0.764927	362.212830
9542.838711	1.316228	0.764927	1702.133057
9542.839767	1.321271	0.764927	3097.395020
9542.840670	1.292842	0.764927	4264.831055
9542.841535	1.264003	0.764927	5358.193359
9542.842644	1.231586	0.764927	6724.021973
9542.843611	1.202897	0.764927	7887.223145
9542.844475	1.178148	0.764927	8905.143555
9542.845520	1.149598	0.764927	10106.473633
9542.846568	1.125209	0.764927	11285.692383
9542.847465	1.105496	0.764927	12277.322266
9542.848424	0.687118	0.764927	12936.268555
9542.849497	0.090769	0.764927	13033.664062
9542.850430	0.083844	0.764927	13111.890625
9542.851299	0.083848	0.764927	13184.753906
9542.852347	0.083859	0.764927	13272.637695
9542.853369	0.083844	0.764927	13358.326172
9542.854264	0.083925	0.764927	13433.438477
9542.855235	0.083965	0.764927	13514.968750
9542.856306	0.083844	0.764927	13604.765625
9542.857228	0.083936	0.764927	13682.154297
9542.858092	0.083910	0.764927	13754.652344
9544.003021	0.867037	0.626284	374.560150
9544.003946	1.313229	0.626284	1589.296753
9544.004892	1.326540	0.626284	2844.204102
9544.005826	1.298522	0.626284	4057.023437
9544.006696	1.270433	0.626284	5162.300293
9544.007626	1.241254	0.626284	6316.666016
9544.008584	1.212671	0.626284	7478.404785
9544.009479	1.187095	0.626284	8540.854492
9544.010550	1.156824	0.626284	9779.812500
9544.011519	1.132251	0.626284	10876.963867
9544.012449	1.114325	0.626284	11913.286133
9544.013329	1.019011	0.626284	12810.015625
9544.014301	0.193594	0.626284	12998.188477
9544.015241	0.083873	0.626284	13077.029297
9544.016139	0.083943	0.626284	13152.410156
9544.017004	0.083881	0.626284	13224.966797
9544.017967	0.083928	0.626284	13305.790039
9544.018927	0.083936	0.626284	13386.368164
9544.019804	0.083877	0.626284	13459.928711
9544.020710	0.083877	0.626284	13535.920898
9544.021666	0.084005	0.626284	13616.229492
9544.022579	0.083921	0.626284	13692.849609
9544.904131	0.859156	0.766716	369.437286
9544.904995	1.310837	0.766716	1502.000732
9544.906114	1.323406	0.766716	2982.891602
9544.907025	1.295131	0.766716	4162.755859
9544.907893	1.267489	0.766716	5262.936523
9544.908907	1.237101	0.766716	6517.356934
9544.909910	1.206489	0.766716	7727.465820
9544.910804	1.181082	0.766716	8783.352539
9544.911665	1.156578	0.766716	9779.166992
9544.912729	1.130409	0.766716	10981.921875
9544.913650	1.111655	0.766716	12005.755859
9544.914532	0.991560	0.766716	12880.311523
9544.915527	0.171354	0.766716	13050.808594
9544.916528	0.083774	0.766716	13134.666992
9544.917414	0.083961	0.766716	13209.056641
9544.918276	0.083844	0.766716	13281.330078
9544.919353	0.083936	0.766716	13371.728516
9544.920285	0.083840	0.766716	13449.868164
9544.921158	0.083925	0.766716	13523.134766
9544.922141	0.083932	0.766716	13605.639648
9544.923142	0.083928	0.766716	13689.651367
9544.924022	0.083932	0.766716	13763.511719
9546.070451	0.843296	0.613861	353.340973
9546.071422	1.316715	0.613861	1631.871216
9546.072357	1.326068	0.613861	2871.744873
9546.073240	1.299390	0.613861	4019.105957
9546.074143	1.270887	0.613861	5166.717285
9546.075087	1.240946	0.613861	6338.170410
9546.076043	1.212847	0.613861	7497.651855
9546.076918	1.187366	0.613861	8536.596680
9546.077922	1.159893	0.613861	9701.128906
9546.078974	1.132390	0.613861	10892.403320
9546.079940	1.113278	0.613861	11967.829102
9546.080816	1.024244	0.613861	12865.067383
9546.081829	0.167168	0.613861	13034.408203
9546.082868	0.083822	0.613861	13121.499023
9546.083763	0.083969	0.613861	13196.650391
9546.084686	0.083943	0.613861	13274.129883
9546.085747	0.083932	0.613861	13363.181641
9546.086700	0.083990	0.613861	13443.224609
9546.087566	0.083925	0.613861	13515.903320
9546.088619	0.084034	0.613861	13604.391602
9546.089641	0.083862	0.613861	13690.098633
9546.090529	0.083914	0.613861	13764.614258
9546.972709	0.923628	0.765185	476.592010
9546.973601	1.320223	0.765185	1654.231201
9546.974478	1.326383	0.765185	2817.469238
9546.975363	1.298910	0.765185	3967.004395
9546.976424	1.266193	0.765185	5310.434570
9546.977318	1.238661	0.765185	6417.797363
9546.978200	1.212481	0.765185	7487.205078
9546.979222	1.183550	0.765185	8696.792969
9546.980142	1.157611	0.765185	9761.794922
9546.981071	1.133353	0.765185	10814.679687
9546.981938	1.115969	0.765185	11782.224609
9546.982987	1.007809	0.765185	12839.416016
9546.983867	0.197651	0.765185	13013.349609
9546.984742	0.084104	0.765185	13086.940430
9546.985713	0.083990	0.765185	13168.495117
9546.986646	0.083925	0.765185	13246.796875
9546.987562	0.083976	0.765185	13323.718750
9546.988427	0.083954	0.765185	13396.338867
9546.989459	0.083976	0.765185	13483.001953
9546.990350	0.083910	0.765185	13557.765625
9546.991223	0.084001	0.765185	13631.098633
9546.992122	0.083873	0.765185	13706.500977
9548.138030	0.923441	0.614248	500.505096
9548.139098	1.328002	0.614248	1918.810913
9548.139997	1.320883	0.614248	3106.284180
9548.140874	1.292560	0.614248	4239.859375
9548.141963	1.258788	0.614248	5610.679199
9548.142963	1.228334	0.614248	6839.012695
9548.143863	1.201934	0.614248	7920.752930
9548.144859	1.173790	0.614248	9089.847656
9548.145929	1.145336	0.614248	10315.356445
9548.146827	1.124615	0.614248	11325.260742
9548.147715	1.104353	0.614248	12305.925781
9548.148805	0.537096	0.614248	12891.360352
9548.149756	0.087957	0.614248	12975.006836
9548.150628	0.083881	0.614248	13048.150391
9548.151665	0.083972	0.614248	13135.229492
9548.152697	0.083917	0.614248	13221.832031
9548.153585	0.083903	0.614248	13296.337891
9548.154508	0.083928	0.614248	13373.803711
9548.155561	0.084038	0.614248	13462.295898
9548.156492	0.083947	0.614248	13540.450195
9548.157354	0.083862	0.614248	13612.739258
9548.158406	0.084049	0.614248	13701.159180
9549.038027	0.851814	0.769330	372.242676
9549.038889	1.310804	0.769330	1502.156128
9549.039812	1.327020	0.769330	2726.995850
9549.040794	1.298752	0.769330	4002.370605
9549.041721	1.269408	0.769330	5179.111816
9549.042603	1.241759	0.769330	6274.343262
9549.043579	1.212986	0.769330	7458.217773
9549.044540	1.185582	0.769330	8597.562500
9549.045433	1.160457	0.769330	9633.850586
9549.046347	1.136631	0.769330	10672.731445
9549.047307	1.117368	0.769330	11745.405273
9549.048236	1.081256	0.769330	12749.892578
9549.049119	0.298766	0.769330	13013.703125
9549.050032	0.085001	0.769330	13091.309570
9549.050982	0.083844	0.769330	13170.960937
9549.051876	0.083855	0.769330	13245.927734
9549.052783	0.083914	0.769330	13322.037109
9549.053743	0.083914	0.769330	13402.593750
9549.054660	0.083804	0.769330	13479.441406
9549.055537	0.083895	0.769330	13553.017578
9549.056528	0.083892	0.769330	13636.154297
9549.057464	0.083947	0.769330	13714.728516
9550.205467	0.921577	0.615666	467.239594
9550.206385	1.321868	0.615666	1680.714233
9550.207259	1.326152	0.615666	2839.771484
9550.208246	1.296991	0.615666	4119.901367
9550.209279	1.263944	0.615666	5425.555664
9550.210161	1.236573	0.615666	6516.213379
9550.211030	1.210052	0.615666	7567.749023
9550.212091	1.179972	0.615666	8819.699219
9550.213035	1.154176	0.615666	9909.241211
9550.213914	1.131595	0.615666	10903.914062
9550.214872	1.112999	0.615666	11970.166992
9550.215906	0.894668	0.615666	12895.253906
9550.216802	0.134784	0.615666	13016.020508
9550.217663	0.083778	0.615666	13088.153320
9550.218729	0.083928	0.615666	13177.621094
9550.219665	0.083928	0.615666	13256.177734
9550.220542	0.083903	0.615666	13329.760742
9550.221503	0.083903	0.615666	13410.391602
9550.222539	0.083895	0.615666	13497.306641
9550.223416	0.083866	0.615666	13570.857422
9550.224280	0.083859	0.615666	13643.311523
9550.225221	0.083899	0.615666	13722.260742
9551.105479	0.858505	0.770414	373.449493
9551.106344	1.311083	0.770414	1507.536011
9551.107304	1.326683	0.770414	2781.151855
9551.108269	1.298364	0.770414	4034.073242
9551.109164	1.269804	0.770414	5170.547363
9551.110086	1.241818	0.770414	6315.502930
9551.111032	1.212883	0.770414	7462.890625
9551.111943	1.186710	0.770414	8543.983398
9551.112810	1.161984	0.770414	9551.422852
9551.113786	1.136441	0.770414	10660.588867
9551.114740	1.117669	0.770414	11726.844727
9551.115633	1.095319	0.770414	12704.963867
9551.116566	0.347227	0.770414	13028.925781
9551.117520	0.084884	0.770414	13109.905273
9551.118426	0.083903	0.770414	13185.920898
9551.119306	0.083928	0.770414	13259.777344
9551.120221	0.083906	0.770414	13336.551758
9551.121188	0.083866	0.770414	13417.650391
9551.122116	0.083888	0.770414	13495.498047
9551.122979	0.083899	0.770414	13567.902344
9551.123937	0.083903	0.770414	13648.281250
9551.124886	0.083866	0.770414	13727.870117
9552.272848	0.863906	0.616339	382.710480
9552.273727	1.313130	0.616339	1536.951660
9552.274593	1.328529	0.616339	2687.457764
9552.275649	1.298584	0.616339	4058.762451
9552.276535	1.269917	0.616339	5183.908691
9552.277412	1.242737	0.616339	6273.789062
9552.278363	1.214304	0.616339	7428.592285
9552.279345	1.185634	0.616339	8592.884766
9552.280269	1.160332	0.616339	9665.031250
9552.281155	1.136587	0.616339	10672.046875
9552.282196	1.115991	0.616339	11833.793945
9552.283092	1.066831	0.616339	12789.674805
9552.284010	0.247522	0.616339	13016.900391
9552.284889	0.084510	0.616339	13091.185547
9552.285862	0.083870	0.616339	13172.791016
9552.286818	0.083866	0.616339	13252.966797
9552.287703	0.083877	0.616339	13327.198242
9552.288683	0.083840	0.616339	13409.361328
9552.289598	0.083866	0.616339	13486.098633
9552.290508	0.083811	0.616339	13562.366211
9552.291372	0.083925	0.616339	13634.876953
9552.292406	0.083829	0.616339	13721.556641
