time (s)	coil I (A)	last det (V)	int current (uC)
7888.569367	0.933003	0.332833	466.501434
7888.570307	1.328840	0.332833	1715.611450
7888.571246	1.330587	0.332833	2965.032715
7888.572126	1.303367	0.332833	4111.995117
7888.573090	1.273015	0.332833	5339.181641
7888.574029	1.243590	0.332833	6506.912598
7888.574906	1.216937	0.332833	7574.166504
7888.575873	0.902139	0.332833	8446.534180
7888.576829	0.119996	0.332833	8561.250977
7888.577753	0.083741	0.332833	8638.627930
7888.578617	0.083815	0.332833	8711.043945
7888.579591	0.083862	0.332833	8792.725586
7888.580514	0.083807	0.332833	8870.080078
7888.581410	0.083840	0.332833	8945.201172
7888.582280	0.083800	0.332833	9018.107422
7888.583251	0.083829	0.332833	9099.505859
7888.584205	0.083866	0.332833	9179.513672
7888.585099	0.083884	0.332833	9254.505859
7889.638441	0.932040	0.310629	480.932526
7889.639328	1.326581	0.310629	1657.609619
7889.640191	1.333561	0.310629	2808.472656
7889.641268	1.300906	0.310629	4209.547852
7889.642251	1.269683	0.310629	5457.645996
7889.643134	1.242111	0.310629	6554.429687
7889.643998	1.214582	0.310629	7603.829102
7889.645124	0.734059	0.310629	8430.378906
7889.646002	0.100345	0.310629	8518.482422
7889.646866	0.083811	0.310629	8590.895508
7889.647725	0.083881	0.310629	8662.949219
7889.648784	0.083848	0.310629	8751.744141
7889.649677	0.083859	0.310629	8826.629883
7889.650559	0.083881	0.310629	8900.612305
7889.651561	0.083870	0.310629	8984.649414
7889.652498	0.083906	0.310629	9063.269531
7889.653370	0.083965	0.310629	9136.487305
7889.654347	0.083925	0.310629	9218.481445
7890.637832	0.912836	0.349092	456.417847
7890.638796	1.329987	0.349092	1738.524902
7890.639663	1.332081	0.349092	2893.439453
7890.640735	1.299302	0.349092	4286.291016
7890.641778	1.265977	0.349092	5606.704590
7890.642675	1.237852	0.349092	6717.057617
7890.643612	1.210104	0.349092	7850.924805
7890.644700	0.546295	0.349092	8445.293945
7890.645639	0.087825	0.349092	8527.761719
7890.646500	0.083895	0.349092	8599.995117
7890.647565	0.083972	0.349092	8689.425781
7890.648557	0.083811	0.349092	8772.566406
7890.649451	0.083873	0.349092	8847.548828
7890.650413	0.083925	0.349092	8928.284180
7890.651452	0.083881	0.349092	9015.436523
7890.652376	0.083961	0.349092	9093.016602
7890.653234	0.083903	0.349092	9165.004883
7890.654310	0.083961	0.349092	9255.346680
7891.699677	0.878734	0.305735	391.915405
7891.700593	1.322578	0.305735	1603.396973
7891.701462	1.334257	0.305735	2762.865723
7891.702437	1.306216	0.305735	4036.426270
7891.703348	1.275333	0.305735	5198.254883
7891.704272	1.246794	0.305735	6350.292969
7891.705158	1.219398	0.305735	7430.679687
7891.706129	0.994940	0.305735	8396.766602
7891.707095	0.145851	0.305735	8537.658203
7891.707982	0.083822	0.305735	8612.008789
7891.708890	0.083851	0.305735	8688.145508
7891.709846	0.083903	0.305735	8768.356445
7891.710730	0.083914	0.305735	8842.536133
7891.711613	0.083862	0.305735	8916.586914
7891.712566	0.083837	0.305735	8996.483398
7891.713520	0.083855	0.305735	9076.481445
7891.714388	0.083862	0.305735	9149.273437
7891.715297	0.083903	0.305735	9225.541016
7892.704344	0.978113	0.340032	558.502380
7892.705308	1.333319	0.340032	1843.822021
7892.706172	1.330184	0.340032	2993.101318
7892.707052	1.301594	0.340032	4138.504395
7892.708172	1.267463	0.340032	5558.063477
7892.709071	1.239419	0.340032	6672.301270
7892.709938	1.213143	0.340032	7724.096680
7892.710950	0.731733	0.340032	8464.611328
7892.711929	0.093691	0.340032	8556.334961
7892.712802	0.083873	0.340032	8629.556641
7892.713662	0.083914	0.340032	8701.722656
7892.714770	0.083958	0.340032	8794.748047
7892.715661	0.083903	0.340032	8869.504883
7892.716534	0.083917	0.340032	8942.764648
7892.717551	0.083965	0.340032	9028.157227
7892.718528	0.083851	0.340032	9110.080078
7892.719422	0.083917	0.340032	9185.102539
7892.720279	0.083914	0.340032	9257.016602
7893.763067	0.898638	0.312857	429.548828
7893.763996	1.325328	0.312857	1660.778809
7893.764872	1.333015	0.312857	2828.500000
7893.765783	1.305959	0.312857	4018.229004
7893.766725	1.275088	0.312857	5219.361816
7893.767675	1.245677	0.312857	6402.755371
7893.768555	1.219010	0.312857	7475.484375
7893.769520	0.957660	0.312857	8399.625977
7893.770487	0.131895	0.312857	8527.167969
7893.771416	0.083818	0.312857	8605.035156
7893.772279	0.083873	0.312857	8677.417969
7893.773255	0.083873	0.312857	8759.278320
7893.774206	0.083888	0.312857	8839.055664
7893.775087	0.083859	0.312857	8912.935547
7893.776002	0.083859	0.312857	8989.666016
7893.776927	0.083892	0.312857	9067.265625
7893.777856	0.083884	0.312857	9145.194336
7893.778746	0.083888	0.312857	9219.854492
7894.770109	0.854740	0.339347	366.683441
7894.770974	1.316715	0.339347	1505.641968
7894.771977	1.332543	0.339347	2842.182129
7894.772914	1.304524	0.339347	4064.520996
7894.773793	1.276241	0.339347	5186.336914
7894.774748	1.247117	0.339347	6377.333496
7894.775691	1.218289	0.339347	7526.179687
7894.776617	0.987059	0.339347	8440.196289
7894.777496	0.155460	0.339347	8576.845703
7894.778415	0.083778	0.339347	8653.837891
7894.779374	0.083903	0.339347	8734.300781
7894.780265	0.083785	0.339347	8808.953125
7894.781221	0.083833	0.339347	8889.097656
7894.782156	0.083782	0.339347	8967.433594
7894.783081	0.083833	0.339347	9044.979492
7894.783962	0.083771	0.339347	9118.781250
7894.784919	0.083818	0.339347	9198.995117
7894.785866	0.083804	0.339347	9278.357422
7895.827500	0.940448	0.311922	491.854340
7895.828428	1.329686	0.311922	1725.803223
7895.829294	1.331902	0.311922	2879.230225
7895.830369	1.299521	0.311922	4276.215820
7895.831402	1.266390	0.311922	5584.396973
7895.832278	1.239082	0.311922	6669.833008
7895.833264	1.210268	0.311922	7863.157715
7895.834323	0.562877	0.311922	8459.244141
7895.835240	0.089048	0.311922	8540.901367
7895.836097	0.083815	0.311922	8612.730469
7895.837164	0.083840	0.311922	8702.188477
7895.838155	0.083778	0.311922	8785.212891
7895.839042	0.083833	0.311922	8859.573242
7895.840024	0.083877	0.311922	8941.940430
7895.841073	0.083840	0.311922	9029.888672
7895.841984	0.083833	0.311922	9106.260742
7895.842846	0.083844	0.311922	9178.534180
7895.843937	0.083906	0.311922	9270.076172
7896.835582	0.902900	0.333071	438.809601
7896.836517	1.326295	0.333071	1678.895508
7896.837441	1.331843	0.333071	2909.518555
7896.838307	1.304967	0.333071	4039.620117
7896.839290	1.274447	0.333071	5292.401367
7896.840200	1.244780	0.333071	6425.151367
7896.841115	1.217325	0.333071	7539.003906
7896.841994	0.983654	0.333071	8403.635742
7896.842985	0.138871	0.333071	8541.256836
7896.843913	0.083698	0.333071	8618.927734
7896.844776	0.083822	0.333071	8691.266602
7896.845753	0.083840	0.333071	8773.178711
7896.846710	0.083906	0.333071	8853.476562
7896.847599	0.083939	0.333071	8928.098633
7896.848471	0.083873	0.333071	9001.236328
7896.849438	0.083862	0.333071	9082.331055
7896.850385	0.083892	0.333071	9161.776367
7896.851256	0.083862	0.333071	9234.820312
7897.891793	0.874999	0.315568	381.499481
7897.892669	1.318381	0.315568	1536.401611
7897.893531	1.334143	0.315568	2686.432861
7897.894593	1.304352	0.315568	4071.654541
7897.895475	1.275681	0.315568	5196.805176
7897.896344	1.248651	0.315568	6281.882812
7897.897334	1.219076	0.315568	7488.768066
7897.898274	0.998178	0.315568	8427.054687
7897.899186	0.150831	0.315568	8564.613281
7897.900063	0.083807	0.315568	8638.112305
7897.901101	0.083866	0.315568	8725.165039
7897.901997	0.083796	0.315568	8800.247070
7897.902872	0.083888	0.315568	8873.649414
7897.903824	0.083925	0.315568	8953.545898
7897.904811	0.083859	0.315568	9036.314453
7897.905730	0.083844	0.315568	9113.367187
7897.906593	0.083870	0.315568	9185.747070
7897.907637	0.083870	0.315568	9273.306641
7898.898924	0.877277	0.336926	415.829102
7898.899871	1.325599	0.336926	1671.171753
7898.900795	1.331722	0.336926	2901.683105
7898.901662	1.304908	0.336926	4033.038574
7898.902590	1.274564	0.336926	5215.833984
7898.903543	1.244927	0.336926	6402.249023
7898.904466	1.217300	0.336926	7525.816895
7898.905354	0.997218	0.336926	8411.346680
7898.906335	0.141566	0.336926	8550.222656
7898.907268	0.083694	0.336926	8628.308594
7898.908137	0.083807	0.336926	8701.136719
7898.909104	0.083774	0.336926	8782.146484
7898.910031	0.083712	0.336926	8859.748047
7898.910944	0.083793	0.336926	8936.250977
7898.911806	0.083785	0.336926	9008.473633
7898.912772	0.083698	0.336926	9089.325195
7898.913699	0.083712	0.336926	9166.926758
7898.914593	0.083756	0.336926	9241.804687
7899.957180	0.869022	0.312748	368.465424
7899.958156	1.325046	0.312748	1661.710815
7899.959084	1.332001	0.312748	2897.807617
7899.959957	1.305432	0.312748	4037.449707
7899.960923	1.275392	0.312748	5269.478027
7899.961862	1.245168	0.312748	6438.691406
7899.962793	1.216901	0.312748	7571.625977
7899.963677	1.012123	0.312748	8466.342773
7899.964613	0.147059	0.312748	8603.990234
7899.965557	0.083665	0.312748	8682.969727
7899.966489	0.083855	0.312748	8761.123047
7899.967355	0.083815	0.312748	8833.707031
7899.968323	0.083917	0.312748	8914.938477
7899.969253	0.083888	0.312748	8992.954102
7899.970113	0.083881	0.312748	9065.091797
7899.971138	0.083892	0.312748	9151.081055
7899.972059	0.083818	0.312748	9228.277344
7899.972966	0.083837	0.312748	9304.317383
7900.963849	0.910664	0.335601	455.332001
7900.964755	1.326229	0.335601	1656.895752
7900.965618	1.332209	0.335601	2806.592529
7900.966707	1.300192	0.335601	4222.500977
7900.967701	1.268185	0.335601	5483.076660
7900.968594	1.240682	0.335601	6591.005859
7900.969593	1.210865	0.335601	7800.660156
7900.970654	0.614619	0.335601	8452.771484
7900.971553	0.091025	0.335601	8534.603516
7900.972414	0.083826	0.335601	8606.777344
7900.973524	0.083818	0.335601	8699.815430
7900.974478	0.083844	0.335601	8779.802734
7900.975339	0.083833	0.335601	8851.983398
7900.976392	0.083862	0.335601	8940.290039
7900.977421	0.083903	0.335601	9026.625977
7900.978301	0.083914	0.335601	9100.469727
7900.979221	0.083796	0.335601	9177.562500
7900.980288	0.083848	0.335601	9267.028320
7902.021606	0.875607	0.317127	401.903473
7902.022525	1.323373	0.317127	1618.083008
7902.023463	1.332305	0.317127	2867.784668
7902.024324	1.305205	0.317127	3991.566406
7902.025296	1.274440	0.317127	5230.321777
7902.026260	1.244795	0.317127	6430.303711
7902.027157	1.217549	0.317127	7522.445312
7902.028080	0.990278	0.317127	8436.472656
7902.029053	0.137344	0.317127	8570.108398
7902.029968	0.083698	0.317127	8646.691406
7902.030857	0.083877	0.317127	8721.257812
7902.031787	0.083892	0.317127	8799.277344
7902.032740	0.083892	0.317127	8879.225586
7902.033615	0.083881	0.317127	8952.621094
7902.034525	0.083888	0.317127	9028.958984
7902.035470	0.083851	0.317127	9108.198242
7902.036397	0.083950	0.317127	9186.020508
7902.037278	0.083881	0.317127	9259.918945
7903.025082	0.849064	0.336644	359.153931
7903.025948	1.315953	0.336644	1498.769531
7903.027061	1.330247	0.336644	2979.333984
7903.027974	1.301569	0.336644	4167.666016
7903.028858	1.273264	0.336644	5293.231445
7903.029877	1.242026	0.336644	6558.856445
7903.030856	1.211873	0.336644	7745.279785
7903.031785	0.813021	0.336644	8500.576172
7903.032647	0.111365	0.336644	8596.572266
7903.033756	0.083870	0.336644	8689.583984
7903.034646	0.083884	0.336644	8764.241211
7903.035506	0.083884	0.336644	8836.381836
7903.036610	0.083925	0.336644	8929.034180
7903.037581	0.083829	0.336644	9010.432617
7903.038451	0.083899	0.336644	9083.424805
7903.039315	0.083917	0.336644	9155.929687
7903.040429	0.083892	0.336644	9249.384766
7903.041330	0.083873	0.336644	9324.955078
7904.088549	0.889453	0.312422	416.264069
7904.089479	1.325006	0.312422	1648.519653
7904.090362	1.333037	0.312422	2825.591309
7904.091274	1.306095	0.312422	4016.750000
7904.092248	1.274740	0.312422	5258.346680
7904.093184	1.245586	0.312422	6424.214844
7904.094051	1.219017	0.312422	7481.102539
7904.094998	1.000100	0.312422	8428.197266
7904.095945	0.147513	0.312422	8567.892578
7904.096867	0.083734	0.312422	8645.095703
7904.097732	0.083910	0.312422	8717.677734
7904.098679	0.083947	0.312422	8797.174805
7904.099629	0.083884	0.312422	8876.865234
7904.100518	0.083925	0.312422	8951.474609
7904.101426	0.083950	0.312422	9027.701172
7904.102353	0.083917	0.312422	9105.492187
7904.103299	0.083870	0.312422	9184.833008
7904.104182	0.084016	0.312422	9259.019531
7905.086507	0.947769	0.330932	493.787415
7905.087460	1.330572	0.330932	1761.822998
7905.088338	1.330997	0.330932	2930.438721
7905.089252	1.302561	0.330932	4120.979492
7905.090328	1.268676	0.330932	5486.074219
7905.091226	1.240704	0.330932	6600.226562
7905.092105	1.214286	0.330932	7667.583984
7905.093034	0.848412	0.330932	8455.758789
7905.094044	0.103766	0.330932	8560.562500
7905.094914	0.083811	0.330932	8633.478516
7905.095770	0.083936	0.330932	8705.327148
7905.096881	0.083866	0.330932	8798.501953
7905.097768	0.083811	0.330932	8872.842773
7905.098670	0.083932	0.330932	8948.549805
7905.099545	0.083928	0.330932	9021.987305
7905.100567	0.083881	0.330932	9107.712891
7905.101464	0.083855	0.330932	9182.930664
7905.102338	0.083906	0.330932	9256.264648
7906.156985	0.847357	0.310041	356.737396
7906.157904	1.316206	0.310041	1566.330688
7906.158854	1.332239	0.310041	2831.957520
7906.159801	1.303945	0.310041	4066.793701
7906.160696	1.275234	0.310041	5208.128418
7906.161625	1.246223	0.310041	6365.869629
7906.162581	1.217670	0.310041	7529.961914
7906.163476	1.025021	0.310041	8447.355469
7906.164406	0.164374	0.310041	8600.222656
7906.165358	0.083745	0.310041	8679.948242
7906.166261	0.083822	0.310041	8755.639648
7906.167150	0.083899	0.310041	8830.225586
7906.168058	0.083818	0.310041	8906.333008
7906.169023	0.083906	0.310041	8987.302734
7906.169945	0.083866	0.310041	9064.626953
7906.170819	0.083862	0.310041	9137.922852
7906.171783	0.083921	0.310041	9218.822266
7906.172726	0.083800	0.310041	9297.845703
7907.147715	0.857106	0.329655	367.698334
7907.148584	1.316711	0.329655	1511.920532
7907.149528	1.333337	0.329655	2770.591064
7907.150518	1.304484	0.329655	4062.029785
7907.151436	1.274832	0.329655	5232.325195
7907.152312	1.247443	0.329655	6325.084961
7907.153394	1.215538	0.329655	7640.297363
7907.154297	0.934885	0.329655	8484.499023
7907.155167	0.136443	0.329655	8603.204102
7907.156043	0.083804	0.329655	8676.616211
7907.157082	0.083892	0.329655	8763.779297
7907.157962	0.083829	0.329655	8837.548828
7907.158831	0.083906	0.329655	8910.462891
7907.159819	0.083895	0.329655	8993.351562
7907.160754	0.083925	0.329655	9071.821289
7907.161670	0.083884	0.329655	9148.659180
7907.162536	0.083906	0.329655	9221.322266
7907.163577	0.083862	0.329655	9308.623047
7908.225007	0.895404	0.312365	416.362885
7908.225936	1.324318	0.312365	1646.654053
7908.226817	1.332989	0.312365	2821.017822
7908.227750	1.305381	0.312365	4038.937988
7908.228723	1.274161	0.312365	5278.697266
7908.229637	1.245066	0.312365	6416.687500
7908.230521	1.218369	0.312365	7493.725586
7908.231468	0.993226	0.312365	8434.310547
7908.232410	0.137271	0.312365	8563.619141
7908.233336	0.083752	0.312365	8641.173828
7908.234198	0.083829	0.312365	8713.434570
7908.235173	0.083855	0.312365	8795.193359
7908.236125	0.083745	0.312365	8874.918945
7908.237012	0.083866	0.312365	8949.307617
7908.237930	0.083818	0.312365	9026.252930
7908.238874	0.083833	0.312365	9105.391602
7908.239803	0.083826	0.312365	9183.265625
7908.240682	0.083906	0.312365	9257.019531
7909.210586	0.881429	0.322658	392.236084
7909.211460	1.318832	0.322658	1544.895020
7909.212326	1.334106	0.322658	2700.231201
7909.213379	1.304147	0.322658	4073.497559
7909.214270	1.275278	0.322658	5209.770508
7909.215142	1.247820	0.322658	6297.869141
7909.216116	1.218637	0.322658	7484.821289
7909.217076	0.987393	0.322658	8432.717773
7909.217991	0.145210	0.322658	8565.584961
7909.218867	0.083752	0.322658	8638.952148
7909.219908	0.083906	0.322658	8726.298828
7909.220798	0.083804	0.322658	8800.883789
7909.221675	0.083910	0.322658	8874.472656
7909.222598	0.083947	0.322658	8951.955078
7909.223610	0.083800	0.322658	9036.760742
7909.224521	0.083899	0.322658	9113.192383
7909.225386	0.083906	0.322658	9185.771484
7909.226404	0.083914	0.322658	9271.195312
7910.291379	0.857988	0.307592	359.497101
7910.292473	1.329778	0.307592	1814.274048
7910.293460	1.327203	0.307592	3124.223633
7910.294352	1.298990	0.307592	4282.922852
7910.295359	1.267189	0.307592	5558.981934
7910.296416	1.234845	0.307592	6864.212891
7910.297297	1.207940	0.307592	7928.407715
7910.298191	0.671906	0.307592	8529.090820
7910.299277	0.089198	0.307592	8625.959961
7910.300235	0.083793	0.307592	8706.233398
7910.301099	0.083903	0.307592	8778.725586
7910.302133	0.083979	0.307592	8865.560547
7910.303159	0.083851	0.307592	8951.591797
7910.304030	0.083921	0.307592	9024.686523
7910.304942	0.083866	0.307592	9101.171875
7910.306020	0.083939	0.307592	9191.658203
7910.306962	0.083917	0.307592	9270.708008
7910.307829	0.083914	0.307592	9343.460937
7911.271371	0.863500	0.329268	375.622406
7911.272247	1.318228	0.329268	1530.389771
7911.273171	1.334048	0.329268	2763.050049
7911.274110	1.305249	0.329268	3988.678955
7911.275064	1.275070	0.329268	5205.095215
7911.275953	1.247413	0.329268	6314.045898
7911.276891	1.219318	0.329268	7457.765625
7911.277852	1.003510	0.329268	8422.138672
7911.278784	0.152102	0.329268	8563.897461
7911.279643	0.083796	0.329268	8635.878906
7911.280589	0.083837	0.329268	8715.188477
7911.281534	0.083866	0.329268	8794.441406
7911.282441	0.083921	0.329268	8870.557617
7911.283304	0.083928	0.329268	8942.987305
7911.284280	0.083877	0.329268	9024.851562
7911.285234	0.083822	0.329268	9104.817383
7911.286125	0.083969	0.329268	9179.633789
7911.287037	0.083826	0.329268	9256.083008
7912.356812	0.865631	0.301634	381.743317
7912.357687	1.318370	0.301634	1535.317383
7912.358648	1.332902	0.301634	2816.235840
7912.359673	1.302136	0.301634	4150.925293
7912.360560	1.273531	0.301634	5280.547852
7912.361428	1.246282	0.301634	6362.320312
7912.362494	1.214604	0.301634	7657.088867
7912.363441	0.874285	0.301634	8485.036133
7912.364302	0.122941	0.301634	8590.887695
7912.365231	0.083939	0.301634	8668.867187
7912.366286	0.083950	0.301634	8757.434570
7912.367177	0.083851	0.301634	8832.146484
7912.368041	0.083928	0.301634	8904.660156
7912.369069	0.083976	0.301634	8990.987305
7912.370031	0.083873	0.301634	9071.673828
7912.370905	0.083961	0.301634	9145.055664
7912.371789	0.083939	0.301634	9219.257812
7912.372870	0.083994	0.301634	9310.055664
7913.335748	0.865353	0.326775	373.832428
7913.336625	1.317590	0.326775	1529.359131
7913.337544	1.333594	0.326775	2754.931641
7913.338504	1.305681	0.326775	4008.385498
7913.339433	1.275839	0.326775	5193.639648
7913.340297	1.248318	0.326775	6272.186523
7913.341261	1.220072	0.326775	7448.335937
7913.342193	1.034707	0.326775	8412.682617
7913.343095	0.168805	0.326775	8564.944336
7913.343984	0.083873	0.326775	8639.507812
7913.344930	0.083851	0.326775	8718.831055
7913.345877	0.083888	0.326775	8798.272461
7913.346762	0.083866	0.326775	8872.494141
7913.347674	0.083888	0.326775	8949.000000
7913.348627	0.083873	0.326775	9028.931641
7913.349555	0.083958	0.326775	9106.843750
7913.350419	0.083903	0.326775	9179.335937
7913.351383	0.083895	0.326775	9260.210937
7914.420170	0.870432	0.304712	382.119720
7914.421056	1.319304	0.304712	1551.023193
7914.421937	1.334582	0.304712	2726.790283
7914.422923	1.305798	0.304712	4014.307373
7914.423851	1.275780	0.304712	5198.231445
7914.424776	1.246985	0.304712	6351.692383
7914.425646	1.220497	0.304712	7413.524414
7914.426619	1.038373	0.304712	8423.861328
7914.427568	0.158533	0.304712	8574.308594
7914.428459	0.083826	0.304712	8648.997070
7914.429320	0.083840	0.304712	8721.183594
7914.430297	0.083972	0.304712	8803.224609
7914.431260	0.083829	0.304712	8883.952148
7914.432148	0.083965	0.304712	8958.512695
7914.433060	0.083943	0.304712	9035.068359
7914.434027	0.083917	0.304712	9116.216797
7914.434948	0.083976	0.304712	9193.558594
7914.435810	0.083932	0.304712	9265.908203
7915.401234	0.900795	0.323371	463.008423
7915.402294	1.332924	0.323371	1875.907471
7915.403229	1.326709	0.323371	3116.380371
7915.404105	1.298372	0.323371	4253.753906
7915.405201	1.264149	0.323371	5639.261719
7915.406203	1.233325	0.323371	6875.053711
7915.407098	1.206716	0.323371	7955.064941
7915.408080	0.556307	0.323371	8501.358398
7915.409128	0.086708	0.323371	8592.228516
7915.410036	0.083818	0.323371	8668.335937
7915.410899	0.083873	0.323371	8740.718750
7915.411998	0.083972	0.323371	8833.003906
7915.412954	0.083807	0.323371	8913.124023
7915.413828	0.083892	0.323371	8986.445312
7915.414824	0.083958	0.323371	9070.067383
7915.415874	0.083965	0.323371	9158.230469
7915.416755	0.083950	0.323371	9232.190430
7915.417617	0.083925	0.323371	9304.533203
7916.479936	0.869337	0.306843	372.945648
7916.480913	1.325002	0.306843	1667.473022
7916.481837	1.331345	0.306843	2897.635986
7916.482726	1.304579	0.306843	4057.406738
7916.483646	1.275183	0.306843	5230.575195
7916.484609	1.245121	0.306843	6429.626465
7916.485537	1.217205	0.306843	7559.192383
7916.486407	1.024347	0.306843	8450.374023
7916.487393	0.150432	0.306843	8598.700195
7916.488348	0.083818	0.306843	8678.747070
7916.489245	0.083910	0.306843	8754.014648
7916.490108	0.083906	0.306843	8826.425781
7916.491064	0.083936	0.306843	8906.667969
7916.491994	0.083917	0.306843	8984.710937
7916.492873	0.083892	0.306843	9058.451172
7916.493832	0.083925	0.306843	9138.934570
7916.494775	0.083870	0.306843	9218.023437
7916.495671	0.083969	0.306843	9293.258789
7917.469190	0.922731	0.317965	450.292603
7917.470075	1.323318	0.317965	1621.428955
7917.470949	1.333151	0.317965	2786.602539
7917.471929	1.304689	0.317965	4065.197510
7917.472891	1.273348	0.317965	5290.158691
7917.473820	1.244443	0.317965	6446.246582
7917.474684	1.217959	0.317965	7498.562988
7917.475718	0.904545	0.317965	8433.862305
7917.476620	0.125171	0.317965	8546.766602
7917.477498	0.083782	0.317965	8620.327148
7917.478404	0.083866	0.317965	8696.309570
7917.479403	0.083895	0.317965	8780.121094
7917.480325	0.083815	0.317965	8857.398437
7917.481202	0.083895	0.317965	8930.974609
7917.482219	0.083925	0.317965	9016.326172
7917.483123	0.083873	0.317965	9092.147461
7917.484042	0.083936	0.317965	9169.284180
7917.484906	0.083829	0.317965	9241.712891
7918.540778	0.878771	0.310178	413.901001
7918.541864	1.331960	0.310178	1860.410034
7918.542818	1.326804	0.310178	3126.181152
7918.543684	1.299254	0.310178	4251.335449
7918.544733	1.266101	0.310178	5579.475586
7918.545761	1.234435	0.310178	6848.474609
7918.546643	1.207826	0.310178	7913.777344
7918.547623	0.620325	0.310178	8521.695312
7918.548677	0.087737	0.310178	8614.169922
7918.549602	0.083859	0.310178	8691.739258
7918.550463	0.083862	0.310178	8763.944336
7918.551536	0.083888	0.310178	8853.956055
7918.552535	0.083833	0.310178	8937.705078
7918.553403	0.083840	0.310178	9010.478516
7918.554380	0.084027	0.310178	9092.573242
7918.555425	0.083884	0.310178	9180.232422
7918.556336	0.083899	0.310178	9256.664062
7918.557202	0.083954	0.310178	9329.368164
7919.537617	0.866283	0.301739	382.030762
7919.538501	1.318788	0.301739	1547.839233
7919.539416	1.333722	0.301739	2768.194824
7919.540391	1.305549	0.301739	4041.105469
7919.541322	1.275139	0.301739	5228.260254
7919.542187	1.247483	0.301739	6307.333008
7919.543146	1.217699	0.301739	7475.106445
7919.544106	0.965109	0.301739	8401.610352
7919.545044	0.140013	0.301739	8532.943359
7919.545921	0.083752	0.301739	8606.394531
7919.546889	0.083848	0.301739	8687.558594
7919.547828	0.083892	0.301739	8766.333008
7919.548713	0.083914	0.301739	8840.596680
7919.549573	0.083870	0.301739	8912.724609
7919.550545	0.083943	0.301739	8994.317383
7919.551493	0.083910	0.301739	9073.864258
7919.552374	0.083884	0.301739	9147.766602
7919.553291	0.083840	0.301739	9224.648437
7920.603115	0.897887	0.319451	424.700562
7920.604046	1.325222	0.319451	1658.482422
7920.604932	1.332231	0.319451	2838.839355
7920.605846	1.305242	0.319451	4031.830322
7920.606813	1.274363	0.319451	5264.139160
7920.607707	1.246058	0.319451	6378.115234
7920.608623	1.218600	0.319451	7494.352539
7920.609571	0.985587	0.319451	8428.689453
7920.610518	0.145345	0.319451	8566.332031
7920.611391	0.083851	0.319451	8639.534180
7920.612301	0.083888	0.319451	8715.872070
7920.613259	0.083925	0.319451	8796.271484
7920.614180	0.083943	0.319451	8873.583008
7920.615055	0.083936	0.319451	8947.026367
7920.616019	0.083925	0.319451	9027.929687
7920.616957	0.083950	0.319451	9106.674805
7920.617861	0.083947	0.319451	9182.562500
7920.618720	0.083903	0.319451	9254.634766
7921.603525	0.862134	0.304107	373.303925
7921.604387	1.316748	0.304107	1508.340698
7921.605454	1.330778	0.304107	2928.280273
7921.606347	1.303440	0.304107	4092.251953
7921.607216	1.275157	0.304107	5200.363770
7921.608184	1.245282	0.304107	6405.796875
7921.609150	1.215875	0.304107	7580.332520
7921.610060	0.966288	0.304107	8459.654297
7921.610941	0.144115	0.304107	8586.619141
7921.611970	0.083793	0.304107	8672.841797
7921.612871	0.083895	0.304107	8748.431641
7921.613744	0.083818	0.304107	8821.605469
7921.614607	0.083844	0.304107	8893.962891
7921.615659	0.083851	0.304107	8982.174805
7921.616546	0.083851	0.304107	9056.550781
7921.617414	0.083866	0.304107	9129.346680
7921.618419	0.083888	0.304107	9213.654297
7921.619326	0.083925	0.304107	9289.773437
7922.664499	0.950610	0.326904	519.033264
7922.665505	1.333590	0.326904	1860.625000
7922.666402	1.328287	0.326904	3052.098633
7922.667266	1.299983	0.326904	4175.283691
7922.668373	1.266207	0.326904	5576.975098
7922.669289	1.237544	0.326904	6710.565430
7922.670171	1.211254	0.326904	7778.891113
7922.671167	0.706278	0.326904	8482.343750
7922.672158	0.091787	0.326904	8573.304687
7922.673051	0.083815	0.326904	8648.151367
7922.673911	0.083899	0.326904	8720.304687
7922.674990	0.083932	0.326904	8810.867187
7922.675902	0.083884	0.326904	8887.370117
7922.676770	0.083928	0.326904	8960.219727
7922.677758	0.083969	0.326904	9043.180664
7922.678772	0.083829	0.326904	9128.183594
7922.679654	0.084005	0.326904	9202.276367
7922.680518	0.083928	0.326904	9274.790039
7923.668475	0.905292	0.305936	441.782379
7923.669353	1.323080	0.305936	1603.446411
7923.670280	1.331667	0.305936	2837.902100
7923.671365	1.299170	0.305936	4247.501465
7923.672313	1.268793	0.305936	5450.316895
7923.673188	1.241426	0.305936	6536.564453
7923.674247	1.209792	0.305936	7817.734863
7923.675270	0.621020	0.305936	8453.039062
7923.676166	0.092139	0.305936	8535.595703
7923.677137	0.083807	0.305936	8616.972656
7923.678198	0.083976	0.305936	8706.071289
7923.679125	0.083870	0.305936	8783.818359
7923.679987	0.083895	0.305936	8856.135742
7923.681081	0.083837	0.305936	8947.853516
7923.682070	0.083844	0.305936	9030.775391
7923.682951	0.083906	0.305936	9104.697266
7923.683952	0.083925	0.305936	9188.706055
7923.685011	0.083899	0.305936	9277.554687
7924.727748	0.854312	0.328628	371.625519
7924.728620	1.316887	0.328628	1519.951172
7924.729541	1.334121	0.328628	2748.676758
7924.730467	1.306014	0.328628	3958.046143
7924.731431	1.275231	0.328628	5187.368652
7924.732321	1.247589	0.328628	6297.722656
7924.733252	1.219299	0.328628	7432.890625
7924.734207	1.032883	0.328628	8419.293945
7924.735101	0.170760	0.328628	8571.954102
7924.736035	0.083910	0.328628	8650.326172
7924.736965	0.083903	0.328628	8728.355469
7924.737894	0.083833	0.328628	8806.236328
7924.738787	0.083837	0.328628	8881.102539
7924.739698	0.083756	0.328628	8957.404297
7924.740665	0.083851	0.328628	9038.488281
7924.741592	0.083855	0.328628	9116.221680
7924.742456	0.083811	0.328628	9188.634766
7924.743420	0.083719	0.328628	9269.340820
7925.731766	0.854337	0.310766	359.675934
7925.732727	1.321846	0.310766	1629.969604
7925.733666	1.331583	0.310766	2880.326172
7925.734556	1.304755	0.310766	4041.557617
7925.735481	1.275480	0.310766	5221.376465
7925.736425	1.245527	0.310766	6397.154297
7925.737369	1.216981	0.310766	7545.984375
7925.738263	1.019081	0.310766	8457.042969
7925.739200	0.150330	0.310766	8597.901367
7925.740165	0.083734	0.310766	8678.705078
7925.741048	0.083917	0.310766	8752.803711
7925.741974	0.083873	0.310766	8830.470703
7925.742917	0.083870	0.310766	8909.559570
7925.743838	0.083895	0.310766	8986.827148
7925.744715	0.083866	0.310766	9060.377930
7925.745634	0.083859	0.310766	9137.444336
7925.746600	0.083947	0.310766	9218.537109
7925.747518	0.083910	0.310766	9295.566406
7926.791658	0.878394	0.328020	415.480133
7926.792605	1.325365	0.328020	1670.600708
7926.793530	1.331008	0.328020	2901.783447
7926.794399	1.304396	0.328020	4035.303223
7926.795360	1.274063	0.328020	5259.677246
7926.796279	1.244857	0.328020	6403.701172
7926.797199	1.217230	0.328020	7523.552734
7926.798075	0.996841	0.328020	8396.785156
7926.799053	0.147026	0.328020	8540.577148
7926.800004	0.083829	0.328020	8620.298828
7926.800894	0.083870	0.328020	8694.942383
7926.801805	0.083859	0.328020	8771.337891
7926.802745	0.083826	0.328020	8850.133789
7926.803681	0.083833	0.328020	8928.601562
7926.804567	0.083826	0.328020	9002.871094
7926.805504	0.083833	0.328020	9081.422852
7926.806464	0.083833	0.328020	9161.902344
7926.807340	0.083983	0.328020	9235.471680
7927.796665	0.846954	0.307350	357.414734
7927.797623	1.318341	0.307350	1620.385498
7927.798581	1.331071	0.307350	2895.551025
7927.799503	1.303202	0.307350	4097.103027
7927.800373	1.274773	0.307350	5206.155273
7927.801412	1.243206	0.307350	6497.845703
7927.802299	1.216161	0.307350	7576.580566
7927.803168	1.009274	0.307350	8453.639648
7927.804110	0.159976	0.307350	8604.336914
7927.805106	0.083796	0.307350	8687.797852
7927.806028	0.083906	0.307350	8765.159180
7927.806907	0.083921	0.307350	8838.925781
7927.807942	0.083917	0.307350	8925.780273
7927.808845	0.083866	0.307350	9001.511719
7927.809720	0.083965	0.307350	9074.980469
7927.810579	0.083939	0.307350	9147.083984
7927.811631	0.083914	0.307350	9235.361328
7927.812517	0.083833	0.307350	9309.637695
7928.855992	0.847108	0.322726	356.632507
7928.856927	1.316232	0.322726	1587.309082
7928.857961	1.329847	0.322726	2962.371094
7928.858842	1.302649	0.322726	4110.004883
7928.859708	1.274586	0.322726	5213.796387
7928.860748	1.242561	0.322726	6506.059570
7928.861706	1.213832	0.322726	7668.910156
7928.862583	0.941891	0.322726	8494.948242
7928.863469	0.139043	0.322726	8618.140625
7928.864578	0.083749	0.322726	8711.017578
7928.865474	0.083826	0.322726	8786.125000
7928.866339	0.083855	0.322726	8858.659180
7928.867363	0.084005	0.322726	8944.680664
7928.868338	0.083796	0.322726	9026.381836
7928.869216	0.083848	0.322726	9100.000000
7928.870093	0.083818	0.322726	9173.508789
7928.871192	0.083851	0.322726	9265.661133
7928.872086	0.083782	0.322726	9340.562500
7929.858505	0.866561	0.306847	376.087585
7929.859376	1.317722	0.306847	1523.823730
7929.860458	1.329474	0.306847	2962.314453
7929.861446	1.298676	0.306847	4245.405762
7929.862348	1.270232	0.306847	5391.154785
7929.863336	1.239818	0.306847	6616.095215
7929.864393	1.208496	0.306847	7893.475586
7929.865301	0.687074	0.306847	8517.338867
7929.866163	0.097866	0.306847	8601.699219
7929.867286	0.083954	0.306847	8695.979492
7929.868244	0.083910	0.306847	8776.365234
7929.869112	0.084027	0.306847	8849.300781
7929.870151	0.083990	0.306847	8936.566406
7929.871191	0.083903	0.306847	9023.825195
7929.872083	0.083998	0.306847	9098.750977
7929.873002	0.083914	0.306847	9175.867187
7929.874068	0.084038	0.306847	9265.452148
7929.875013	0.083998	0.306847	9344.830078
7930.918839	0.847075	0.322215	357.465759
7930.919815	1.319110	0.322215	1644.917236
7930.920873	1.327881	0.322215	3049.815186
7930.921787	1.299276	0.322215	4237.353516
7930.922659	1.270177	0.322215	5344.947754
7930.923757	1.237244	0.322215	6703.441406
7930.924729	1.208196	0.322215	7877.807617
7930.925618	0.725570	0.322215	8522.839844
7930.926623	0.095720	0.322215	8619.039062
7930.927682	0.083785	0.322215	8707.767578
7930.928573	0.083859	0.322215	8782.485352
7930.929462	0.083914	0.322215	8857.084961
7930.930557	0.083906	0.322215	8948.961914
7930.931521	0.083873	0.322215	9029.815430
7930.932383	0.083910	0.322215	9102.145508
7930.933424	0.083888	0.322215	9189.472656
7930.934447	0.083848	0.322215	9275.249023
7930.935331	0.083976	0.322215	9349.483398
7931.921354	0.863192	0.307378	369.446228
7931.922285	1.320399	0.307378	1598.737793
7931.923249	1.331243	0.307378	2882.055664
7931.924172	1.303466	0.307378	4085.154297
7931.925039	1.275220	0.307378	5190.769531
7931.926021	1.245608	0.307378	6413.956543
7931.926924	1.216751	0.307378	7512.682129
7931.927845	1.002275	0.307378	8435.777344
7931.928722	0.159254	0.307378	8575.443359
7931.929694	0.083760	0.307378	8656.857422
7931.930646	0.083873	0.307378	8736.705078
7931.931539	0.083899	0.307378	8811.626953
7931.932487	0.083947	0.307378	8891.208008
7931.933550	0.083998	0.307378	8980.498047
7931.934550	0.083859	0.307378	9064.356445
7931.935436	0.083961	0.307378	9138.746094
7931.936411	0.083943	0.307378	9220.590820
7931.937448	0.083958	0.307378	9307.654297
7932.984253	0.852400	0.317800	362.269958
7932.985175	1.320143	0.317800	1579.441650
7932.986145	1.331133	0.317800	2870.640381
7932.987062	1.303685	0.317800	4066.119629
7932.987938	1.275220	0.317800	5183.211914
7932.988913	1.245542	0.317800	6397.615234
7932.989867	1.216934	0.317800	7558.569824
7932.990761	1.004696	0.317800	8456.767578
7932.991659	0.159935	0.317800	8600.389648
7932.992602	0.083727	0.317800	8679.343750
7932.993559	0.083870	0.317800	8759.607422
7932.994432	0.083866	0.317800	8832.822266
7932.995349	0.083811	0.317800	8909.676758
7932.996300	0.083848	0.317800	8989.416016
7932.997225	0.083928	0.317800	9067.049805
7932.998098	0.083950	0.317800	9140.337891
7932.999041	0.083829	0.317800	9219.388672
7932.999978	0.083928	0.317800	9298.029297
7933.985286	0.930143	0.303950	457.630280
7933.986201	1.326229	0.303950	1671.130005
7933.987083	1.331968	0.303950	2845.925537
7933.988008	1.303733	0.303950	4051.878418
7933.988983	1.272967	0.303950	5293.021484
7933.989901	1.244341	0.303950	6435.326172
7933.990780	1.217688	0.303950	7505.673828
7933.991756	0.971345	0.303950	8453.707031
7933.992701	0.132239	0.303950	8578.672852
7933.993605	0.083778	0.303950	8654.408203
7933.994467	0.083811	0.303950	8726.653320
7933.995443	0.083763	0.303950	8808.406250
7933.996401	0.083932	0.303950	8888.813477
7933.997273	0.083848	0.303950	8961.928711
7933.998190	0.083881	0.303950	9038.847656
7933.999144	0.083851	0.303950	9118.841797
7934.000037	0.083837	0.303950	9193.708008
7934.000951	0.083877	0.303950	9270.371094
7935.047649	0.894558	0.317788	401.656616
7935.048536	1.320934	0.317788	1573.324951
7935.049468	1.332396	0.317788	2815.118164
7935.050339	1.305674	0.317788	3952.359863
7935.051338	1.274418	0.317788	5225.502930
7935.052270	1.245546	0.317788	6386.351562
7935.053146	1.219050	0.317788	7454.239746
7935.054089	1.032876	0.317788	8428.242187
7935.055039	0.159441	0.317788	8579.710937
7935.055957	0.083862	0.317788	8656.696289
7935.056824	0.083958	0.317788	8729.487305
7935.057737	0.083884	0.317788	8806.073242
7935.058700	0.083851	0.317788	8886.822266
7935.059625	0.083884	0.317788	8964.415039
7935.060503	0.083928	0.317788	9038.104492
7935.061479	0.083917	0.317788	9120.007812
7935.062403	0.083950	0.317788	9197.578125
7935.063273	0.083914	0.317788	9270.583008
7936.051163	0.877075	0.296949	387.667236
7936.052041	1.318605	0.296949	1545.402222
7936.052908	1.333623	0.296949	2701.653320
7936.053981	1.302986	0.296949	4099.756836
7936.054863	1.274286	0.296949	5223.676758
7936.055731	1.247065	0.296949	6306.129395
7936.056692	1.218369	0.296949	7476.982422
7936.057664	0.977443	0.296949	8427.056641
7936.058586	0.140504	0.296949	8556.601562
7936.059460	0.083760	0.296949	8629.807617
7936.060473	0.083914	0.296949	8714.812500
7936.061375	0.083881	0.296949	8790.472656
7936.062248	0.083866	0.296949	8863.687500
7936.063112	0.083939	0.296949	8936.210937
7936.064168	0.083855	0.296949	9024.761719
7936.065052	0.083906	0.296949	9098.934570
7936.065918	0.083983	0.296949	9171.664062
7936.066913	0.083837	0.296949	9255.082031
7937.110983	0.858589	0.315463	370.051819
7937.111859	1.316884	0.315463	1523.641846
7937.112820	1.332239	0.315463	2803.923340
7937.113853	1.301667	0.315463	4148.545898
7937.114749	1.272744	0.315463	5288.924805
7937.115613	1.245597	0.315463	6365.120605
7937.116676	1.213861	0.315463	7655.455078
7937.117633	0.859292	0.315463	8477.797852
7937.118508	0.118176	0.315463	8581.202148
7937.119446	0.083807	0.315463	8659.813477
7937.120490	0.083881	0.315463	8747.384766
7937.121365	0.083866	0.315463	8820.767578
7937.122224	0.083910	0.315463	8892.845703
7937.123272	0.083928	0.315463	8980.802734
7937.124216	0.083899	0.315463	9060.002930
7937.125079	0.083870	0.315463	9132.382812
7937.125988	0.083829	0.315463	9208.583984
7937.127071	0.083899	0.315463	9299.446289
7938.110450	0.905123	0.302762	429.933563
7938.111332	1.321901	0.302762	1595.849976
7938.112308	1.330939	0.302762	2894.846191
7938.113383	1.298240	0.302762	4290.454102
7938.114305	1.268496	0.302762	5460.007324
7938.115168	1.241213	0.302762	6531.174805
7938.116256	1.209426	0.302762	7847.030762
7938.117268	0.612198	0.302762	8466.575195
7938.118140	0.092889	0.302762	8547.575195
7938.119112	0.083884	0.302762	8629.110352
7938.120189	0.083976	0.302762	8719.552734
7938.121071	0.083855	0.302762	8793.512695
7938.121937	0.083958	0.302762	8866.219727
7938.123040	0.083965	0.302762	8958.833008
7938.124012	0.083994	0.302762	9040.475586
7938.124893	0.083950	0.302762	9114.435547
7938.125893	0.083939	0.302762	9198.375000
7938.126946	0.083884	0.302762	9286.705078
7939.174341	0.864053	0.319898	374.998871
7939.175207	1.316689	0.319898	1515.251953
7939.176312	1.328939	0.319898	2983.729736
7939.177285	1.299071	0.319898	4247.725586
7939.178162	1.270851	0.319898	5362.261719
7939.179207	1.238573	0.319898	6656.570312
7939.180249	1.207617	0.319898	7914.907227
7939.181144	0.681779	0.319898	8525.098633
7939.182069	0.097042	0.319898	8614.862305
7939.183129	0.083796	0.319898	8703.686523
7939.184077	0.083873	0.319898	8783.198242
7939.184938	0.083939	0.319898	8855.469727
7939.185991	0.083921	0.319898	8943.838867
7939.187004	0.083903	0.319898	9028.832031
7939.187894	0.083877	0.319898	9103.482422
7939.188849	0.083892	0.319898	9183.598633
7939.189906	0.083873	0.319898	9272.252930
7939.190835	0.083877	0.319898	9350.174805
7940.175321	0.895455	0.295076	399.373077
7940.176244	1.323300	0.295076	1620.778564
7940.177123	1.332971	0.295076	2792.460205
7940.178035	1.305458	0.295076	3983.037598
7940.179015	1.274440	0.295076	5231.988281
7940.179938	1.245663	0.295076	6381.735352
7940.180802	1.219274	0.295076	7435.187988
7940.181768	1.031287	0.295076	8431.411133
7940.182733	0.157405	0.295076	8583.306641
7940.183621	0.083829	0.295076	8657.747070
7940.184499	0.083921	0.295076	8731.429687
7940.185440	0.083958	0.295076	8810.433594
7940.186389	0.083928	0.295076	8890.081055
7940.187274	0.083947	0.295076	8964.374023
7940.188181	0.083910	0.295076	9040.480469
7940.189128	0.083928	0.295076	9119.960937
7940.190023	0.083932	0.295076	9195.080078
7940.190933	0.083877	0.295076	9271.408203
7941.238759	0.890321	0.313876	410.437988
7941.239643	1.321022	0.313876	1578.221313
7941.240513	1.333004	0.313876	2737.935059
7941.241493	1.304821	0.313876	4016.659180
7941.242462	1.273982	0.313876	5251.147461
7941.243356	1.245700	0.313876	6364.802734
7941.244273	1.218607	0.313876	7482.265625
7941.245221	0.993607	0.313876	8424.205078
7941.246132	0.152153	0.313876	8562.816406
7941.246993	0.083752	0.313876	8634.927734
7941.247950	0.083881	0.313876	8715.201172
7941.248889	0.083859	0.313876	8793.944336
7941.249780	0.083947	0.313876	8868.740234
7941.250695	0.083884	0.313876	8945.494141
7941.251653	0.083892	0.313876	9025.862305
7941.252571	0.083906	0.313876	9102.888672
7941.253448	0.083910	0.313876	9176.477539
7941.254398	0.083917	0.313876	9256.199219
7942.235588	0.860548	0.291672	371.756775
7942.236454	1.316356	0.291672	1511.721191
7942.237414	1.333063	0.291672	2791.461426
7942.238347	1.305245	0.291672	4009.255371
7942.239234	1.276417	0.291672	5141.437500
7942.240121	1.248439	0.291672	6248.802734
7942.241081	1.219270	0.291672	7419.301758
7942.242044	1.036974	0.291672	8417.907227
7942.242932	0.173500	0.291672	8571.974609
7942.243868	0.083979	0.291672	8650.579102
7942.244825	0.083815	0.291672	8730.790039
7942.245695	0.083892	0.291672	8803.775391
7942.246601	0.083914	0.291672	8879.800781
7942.247533	0.083866	0.291672	8957.963867
7942.248494	0.083917	0.291672	9038.608398
7942.249388	0.083950	0.291672	9113.660156
7942.250292	0.083917	0.291672	9189.521484
7942.251250	0.083881	0.291672	9269.878906
7943.302589	0.852217	0.312220	362.192139
7943.303577	1.324358	0.312220	1670.657715
7943.304505	1.331038	0.312220	2905.860596
7943.305387	1.303879	0.312220	4055.882324
7943.306269	1.275139	0.312220	5180.555176
7943.307258	1.244927	0.312220	6411.788086
7943.308206	1.216604	0.312220	7565.128906
7943.309081	1.026420	0.312220	8463.246094
7943.310001	0.165894	0.312220	8615.868164
7943.310959	0.083844	0.312220	8696.190430
7943.311850	0.083954	0.312220	8770.993164
7943.312763	0.083972	0.312220	8847.660156
7943.313745	0.083958	0.312220	8930.106445
7943.314665	0.083877	0.312220	9007.273437
7943.315538	0.083877	0.312220	9080.498047
7943.316475	0.083884	0.312220	9159.097656
7943.317426	0.083881	0.312220	9238.868164
7943.318348	0.083939	0.312220	9316.259766
7944.297918	0.854630	0.282943	364.927094
7944.298784	1.315843	0.282943	1504.447510
7944.299834	1.330547	0.282943	2901.521729
7944.300741	1.303048	0.282943	4083.386230
7944.301615	1.274993	0.282943	5197.729980
7944.302582	1.245267	0.282943	6401.903320
7944.303557	1.215487	0.282943	7587.003418
7944.304477	0.956525	0.282943	8467.005859
7944.305344	0.144012	0.282943	8591.864258
7944.306387	0.083840	0.282943	8679.309570
7944.307262	0.083910	0.282943	8752.730469
7944.308134	0.083932	0.282943	8825.918945
7944.309028	0.083983	0.282943	8901.000000
7944.310049	0.083950	0.282943	8986.712891
7944.310945	0.083888	0.282943	9061.876953
7944.311824	0.083998	0.282943	9135.710937
7944.312818	0.084042	0.282943	9219.248047
7944.313748	0.083961	0.282943	9297.332031
7945.369144	0.955078	0.307705	510.011749
7945.370097	1.330627	0.307705	1778.099609
7945.370971	1.330071	0.307705	2940.581543
7945.371910	1.301675	0.307705	4162.854492
7945.372973	1.267731	0.307705	5510.452148
7945.373870	1.239719	0.307705	6622.480469
7945.374733	1.213444	0.307705	7669.682617
7945.375795	0.728185	0.307705	8443.014648
7945.376737	0.096233	0.307705	8533.666016
7945.377601	0.083811	0.307705	8606.079102
7945.378487	0.083958	0.307705	8680.465820
7945.379595	0.083892	0.307705	8773.417969
7945.380464	0.083914	0.307705	8846.338867
7945.381334	0.083939	0.307705	8919.366211
7945.382370	0.084016	0.307705	9006.407227
7945.383347	0.083928	0.307705	9088.405273
7945.384261	0.083870	0.307705	9165.062500
7945.385143	0.083947	0.307705	9239.103516
7946.356216	0.904395	0.285460	440.440155
7946.357090	1.322234	0.285460	1596.072632
7946.358016	1.331550	0.285460	2829.088379
7946.359099	1.299060	0.285460	4235.970215
7946.360049	1.268760	0.285460	5441.291992
7946.360921	1.241378	0.285460	6523.773926
7946.361973	1.210280	0.285460	7796.988281
7946.362999	0.638236	0.285460	8451.818359
7946.363891	0.093186	0.285460	8534.940430
7946.364851	0.083947	0.285460	8615.529297
7946.365915	0.083936	0.285460	8704.836914
7946.366842	0.083947	0.285460	8782.655273
7946.367702	0.083928	0.285460	8854.833984
7946.368775	0.083943	0.285460	8944.904297
7946.369771	0.083873	0.285460	9028.442383
7946.370653	0.083983	0.285460	9102.515625
7946.371646	0.083954	0.285460	9185.881836
7946.372689	0.083998	0.285460	9273.491211
7947.433912	0.844926	0.305707	356.558563
7947.434927	1.320802	0.305707	1697.172607
7947.435984	1.327313	0.305707	3100.142578
7947.436876	1.298730	0.305707	4258.610352
7947.437741	1.269602	0.305707	5356.816406
7947.438841	1.236888	0.305707	6717.393555
7947.439816	1.207723	0.305707	7894.923828
7947.440687	0.728159	0.305707	8529.150391
7947.441725	0.093109	0.305707	8625.797852
7947.442754	0.083855	0.305707	8712.084961
7947.443641	0.083936	0.305707	8786.536133
7947.444553	0.083932	0.305707	8863.082031
7947.445645	0.083958	0.305707	8954.763672
7947.446583	0.083969	0.305707	9033.526367
7947.447450	0.084016	0.305707	9106.368164
7947.448499	0.084031	0.305707	9194.516602
7947.449516	0.083939	0.305707	9279.882812
7947.450408	0.083884	0.305707	9354.708008
7948.417009	0.873171	0.286492	417.375916
7948.417948	1.324926	0.286492	1661.480957
7948.418876	1.330994	0.286492	2896.643066
7948.419743	1.304326	0.286492	4027.493896
7948.420736	1.272312	0.286492	5290.899414
7948.421684	1.242751	0.286492	6469.027832
7948.422597	1.215238	0.286492	7578.540039
7948.423479	0.954148	0.286492	8420.098633
7948.424453	0.131836	0.286492	8548.506836
7948.425385	0.083811	0.286492	8626.619141
7948.426261	0.083943	0.286492	8700.153320
7948.427230	0.083917	0.286492	8781.468750
7948.428144	0.083851	0.286492	8858.108398
7948.429062	0.083881	0.286492	8935.110352
7948.429924	0.083921	0.286492	9007.450195
7948.430892	0.083961	0.286492	9088.724609
7948.431845	0.083917	0.286492	9168.697266
7948.432723	0.083936	0.286492	9242.392578
7949.502395	0.858827	0.300305	364.142609
7949.503370	1.322377	0.300305	1653.459839
7949.504320	1.330712	0.300305	2917.635742
7949.505200	1.303667	0.300305	4064.862793
7949.506118	1.274436	0.300305	5234.794922
7949.507068	1.244627	0.300305	6417.189941
7949.508011	1.216381	0.300305	7564.236816
7949.508883	1.020278	0.300305	8453.919922
7949.509857	0.133425	0.300305	8583.875977
7949.510821	0.083826	0.300305	8664.683594
7949.511753	0.083979	0.300305	8742.952148
7949.512616	0.083859	0.300305	8815.322266
7949.513587	0.083892	0.300305	8896.781250
7949.514541	0.083943	0.300305	8976.862305
7949.515424	0.083939	0.300305	9050.980469
7949.516347	0.083983	0.300305	9128.497070
7949.517257	0.083881	0.300305	9204.828125
7949.518199	0.083899	0.300305	9283.861328
7950.474174	0.848419	0.290878	358.881317
7950.475069	1.315884	0.290878	1536.597412
7950.476103	1.330316	0.290878	2912.144531
7950.476994	1.303202	0.290878	4073.297363
7950.477863	1.275271	0.290878	5181.507812
7950.478865	1.244300	0.290878	6428.296875
7950.479788	1.215754	0.290878	7550.438477
7950.480705	0.980955	0.290878	8449.973633
7950.481577	0.151161	0.290878	8581.786133
7950.482616	0.083815	0.290878	8668.869141
7950.483508	0.083921	0.290878	8743.726562
7950.484383	0.083969	0.290878	8817.199219
7950.485347	0.083936	0.290878	8898.113281
7950.486308	0.083969	0.290878	8978.806641
7950.487229	0.083921	0.290878	9056.097656
7950.488090	0.083943	0.290878	9128.372070
7950.489126	0.083910	0.290878	9215.302734
7950.490004	0.083895	0.290878	9288.962891
7951.569857	0.851448	0.290302	364.419647
7951.570725	1.315364	0.290302	1506.155396
7951.571629	1.332945	0.290302	2711.138184
7951.572673	1.303169	0.290302	4071.646484
7951.573568	1.274344	0.290302	5212.184570
7951.574437	1.246007	0.290302	6294.964844
7951.575557	1.213828	0.290302	7654.452148
7951.576476	0.894712	0.290302	8476.692383
7951.577351	0.124559	0.290302	8585.681641
7951.578218	0.083910	0.290302	8658.431641
7951.579278	0.083936	0.290302	8747.403320
7951.580174	0.083906	0.290302	8822.583008
7951.581047	0.083990	0.290302	8895.906250
7951.582064	0.084001	0.290302	8981.335937
7951.582988	0.083983	0.290302	9058.936523
7951.583912	0.084023	0.290302	9136.574219
7951.584772	0.083998	0.290302	9208.812500
7951.585825	0.083932	0.290302	9297.192383
7952.535055	0.924177	0.286403	467.633698
7952.535996	1.328423	0.286403	1717.679565
7952.536868	1.331052	0.286403	2878.356934
7952.537922	1.299031	0.286403	4247.535156
7952.538953	1.266152	0.286403	5552.937988
7952.539851	1.238313	0.286403	6664.942871
7952.540796	1.210258	0.286403	7808.636230
7952.541870	0.589688	0.286403	8441.960937
7952.542803	0.089410	0.286403	8525.380859
7952.543663	0.083848	0.286403	8597.490234
7952.544729	0.084060	0.286403	8687.098633
7952.545734	0.083969	0.286403	8771.487305
7952.546609	0.083954	0.286403	8844.947266
7952.547583	0.083961	0.286403	8926.725586
7952.548634	0.083899	0.286403	9014.903320
7952.549547	0.084009	0.286403	9091.603516
7952.550406	0.083972	0.286403	9163.735352
7952.551482	0.083976	0.286403	9254.093750
7953.637402	0.902032	0.297787	467.252838
7953.638459	1.331770	0.297787	1874.933594
7953.639386	1.326361	0.297787	3104.470215
7953.640252	1.298342	0.297787	4228.834961
7953.641317	1.265185	0.297787	5576.257324
7953.642337	1.233772	0.297787	6834.704590
7953.643220	1.207324	0.297787	7900.771973
7953.644219	0.607372	0.297787	8507.536133
7953.645272	0.087656	0.297787	8599.837891
7953.646175	0.083859	0.297787	8675.562500
7953.647033	0.083928	0.297787	8747.573242
7953.648102	0.083961	0.297787	8837.328125
7953.649092	0.083884	0.297787	8920.374023
7953.649983	0.083936	0.297787	8995.160156
7953.650967	0.084001	0.297787	9077.817383
7953.652024	0.083925	0.297787	9166.525391
7953.652919	0.083936	0.297787	9241.647461
7953.653782	0.084012	0.297787	9314.150391
7954.594766	0.859215	0.280699	378.054626
7954.595628	1.316609	0.280699	1512.971436
7954.596566	1.332620	0.280699	2762.968750
7954.597519	1.304088	0.280699	4005.764893
7954.598454	1.274637	0.280699	5197.550781
7954.599320	1.246919	0.280699	6277.382812
7954.600296	1.217889	0.280699	7466.042969
7954.601254	0.998866	0.280699	8422.956055
7954.602155	0.150190	0.280699	8558.277344
7954.603065	0.083833	0.280699	8634.565430
7954.604031	0.083921	0.280699	8715.632812
7954.604951	0.083881	0.280699	8792.802734
7954.605820	0.083990	0.280699	8865.790039
7954.606732	0.083892	0.280699	8942.298828
7954.607678	0.083914	0.280699	9021.680664
7954.608608	0.083917	0.280699	9099.723633
7954.609487	0.083910	0.280699	9173.480469
7954.610451	0.083866	0.280699	9254.327148
7955.701188	0.868539	0.310960	376.077332
7955.702067	1.317228	0.310960	1533.920410
7955.702979	1.332858	0.310960	2749.486572
7955.703955	1.304238	0.310960	4022.423340
7955.704893	1.274462	0.310960	5217.868164
7955.705760	1.246776	0.310960	6298.823242
7955.706741	1.217966	0.310960	7493.648437
7955.707700	0.993135	0.310960	8446.064453
7955.708594	0.153519	0.310960	8583.310547
7955.709515	0.083866	0.310960	8660.550781
7955.710410	0.083851	0.310960	8735.597656
7955.711356	0.083881	0.310960	8814.948242
7955.712243	0.083925	0.310960	8889.389648
7955.713152	0.083892	0.310960	8965.647461
7955.714112	0.083807	0.310960	9046.102539
7955.715005	0.083936	0.310960	9121.056641
7955.715917	0.083921	0.310960	9197.592773
7955.716854	0.083844	0.310960	9276.154297
7956.656135	0.918234	0.276920	449.934479
7956.657059	1.325211	0.276920	1674.429565
7956.657936	1.331774	0.276920	2842.395020
7956.658848	1.304033	0.276920	4031.673340
7956.659811	1.273348	0.276920	5257.907715
7956.660743	1.244326	0.276920	6417.619629
7956.661627	1.217644	0.276920	7494.016602
7956.662570	0.990538	0.276920	8428.093750
7956.663509	0.137780	0.276920	8557.468750
7956.664443	0.083848	0.276920	8635.782227
7956.665303	0.083965	0.276920	8707.992187
7956.666270	0.083969	0.276920	8789.189453
7956.667223	0.083921	0.276920	8869.166016
7956.668113	0.083958	0.276920	8943.888672
7956.669033	0.083921	0.276920	9021.095703
7956.669979	0.084038	0.276920	9100.595703
7956.670893	0.083932	0.276920	9177.309570
7956.671779	0.083994	0.276920	9251.728516
7957.765635	0.928001	0.307697	463.072266
7957.766548	1.325881	0.307697	1673.601929
7957.767481	1.330455	0.307697	2914.916748
7957.768365	1.302766	0.307697	4066.562012
7957.769344	1.272096	0.307697	5311.944336
7957.770302	1.242700	0.307697	6502.451172
7957.771193	1.215828	0.307697	7585.753906
7957.772109	0.962512	0.307697	8467.415039
7957.773088	0.127976	0.307697	8592.703125
7957.774004	0.083771	0.307697	8669.437500
7957.774866	0.083921	0.307697	8741.777344
7957.775847	0.083939	0.307697	8824.122070
7957.776800	0.083917	0.307697	8904.094727
7957.777721	0.083943	0.307697	8981.406250
7957.778578	0.083903	0.307697	9053.310547
7957.779534	0.083837	0.307697	9133.458008
7957.780472	0.083936	0.307697	9212.189453
7957.781348	0.083928	0.307697	9285.710937
7958.722524	0.879763	0.284558	389.735077
7958.723407	1.318737	0.284558	1554.179565
7958.724269	1.334000	0.284558	2704.087891
7958.725280	1.304125	0.284558	4022.558105
7958.726238	1.273682	0.284558	5242.745117
7958.727117	1.246011	0.284558	6337.988281
7958.728110	1.216798	0.284558	7546.268555
7958.729029	0.946322	0.284558	8415.938477
7958.729959	0.134656	0.284558	8541.167969
7958.730838	0.083796	0.284558	8614.825195
7958.731747	0.083866	0.284558	8691.059570
7958.732713	0.083903	0.284558	8772.109375
7958.733602	0.083888	0.284558	8846.685547
7958.734526	0.083961	0.284558	8924.265625
7958.735499	0.083950	0.284558	9005.949219
7958.736417	0.083837	0.284558	9082.911133
7958.737291	0.083870	0.284558	9156.212891
7958.738215	0.083881	0.284558	9233.718750
7959.827956	0.880587	0.298875	427.965363
7959.828879	1.325504	0.298875	1651.405640
7959.829811	1.330569	0.298875	2891.495605
7959.830687	1.303140	0.298875	4033.045898
7959.831727	1.270605	0.298875	5354.475586
7959.832633	1.242268	0.298875	6479.970703
7959.833557	1.214824	0.298875	7602.468262
7959.834428	0.946326	0.298875	8426.717773
7959.835436	0.122607	0.298875	8550.305664
7959.836347	0.083745	0.298875	8626.597656
7959.837213	0.083921	0.298875	8699.273437
7959.838227	0.083778	0.298875	8784.224609
7959.839101	0.083862	0.298875	8857.520508
7959.840000	0.083873	0.298875	8932.922852
7959.840876	0.083888	0.298875	9006.408203
7959.841833	0.083833	0.298875	9086.636719
7959.842765	0.083862	0.298875	9164.796875
7959.843681	0.083884	0.298875	9241.634766
7960.788020	0.937211	0.283172	497.658844
7960.788922	1.326757	0.283172	1694.393311
7960.789797	1.331257	0.283172	2859.243408
7960.790685	1.303517	0.283172	4016.766357
7960.791727	1.271056	0.283172	5341.206543
7960.792620	1.243261	0.283172	6451.438477
7960.793491	1.217087	0.283172	7511.521484
7960.794488	0.900381	0.283172	8409.201172
7960.795411	0.123633	0.283172	8523.314453
7960.796327	0.083804	0.283172	8600.079102
7960.797202	0.083958	0.283172	8673.541992
7960.798243	0.083844	0.283172	8760.823242
7960.799136	0.083862	0.283172	8835.711914
7960.800012	0.083914	0.283172	8909.219727
7960.800988	0.083979	0.283172	8991.183594
7960.801958	0.083928	0.283172	9072.593750
7960.802877	0.084001	0.283172	9149.791016
7960.803741	0.083987	0.283172	9222.355469
7961.889725	0.851067	0.298967	360.852356
7961.890607	1.316019	0.298967	1521.581299
7961.891634	1.330239	0.298967	2887.736816
7961.892560	1.302480	0.298967	4093.833740
7961.893438	1.274326	0.298967	5212.692383
7961.894447	1.243693	0.298967	6467.578125
7961.895361	1.215190	0.298967	7578.262207
7961.896290	0.950684	0.298967	8461.447266
7961.897157	0.141727	0.298967	8584.325195
7961.898176	0.083804	0.298967	8669.720703
7961.899076	0.083796	0.298967	8745.137695
7961.899947	0.083936	0.298967	8818.245117
7961.900921	0.083881	0.298967	8899.945312
7961.901875	0.083866	0.298967	8979.953125
7961.902793	0.083943	0.298967	9057.012695
7961.903662	0.083936	0.298967	9129.953125
7961.904702	0.083888	0.298967	9217.196289
7961.905591	0.083844	0.298967	9291.733398
7962.851312	0.902421	0.283076	430.454651
7962.852200	1.322065	0.283076	1604.448730
7962.853170	1.330792	0.283076	2895.317383
7962.854221	1.298558	0.283076	4260.102051
7962.855150	1.268815	0.283076	5438.831055
7962.856016	1.241389	0.283076	6513.874023
7962.857098	1.209529	0.283076	7822.583984
7962.858113	0.628696	0.283076	8460.710937
7962.858987	0.093962	0.283076	8542.833984
7962.859994	0.083928	0.283076	8627.349609
7962.861035	0.083899	0.283076	8714.688477
7962.861943	0.083862	0.283076	8790.835937
7962.862799	0.083895	0.283076	8862.650391
7962.863865	0.083979	0.283076	8952.172852
7962.864859	0.083892	0.283076	9035.561523
7962.865751	0.083950	0.283076	9110.445312
7962.866733	0.084034	0.283076	9192.966797
7962.867806	0.083939	0.283076	9283.033203
7963.953196	0.933552	0.296498	502.251099
7963.954265	1.333121	0.296498	1927.357788
7963.955186	1.325435	0.296498	3148.083008
7963.956057	1.296434	0.296498	4277.277344
7963.957171	1.262391	0.296498	5683.581055
7963.958142	1.232809	0.296498	6880.638672
7963.959013	1.206654	0.296498	7931.634277
7963.960089	0.477462	0.296498	8445.383789
7963.961120	0.085584	0.296498	8533.620117
7963.962008	0.083870	0.296498	8608.096680
7963.962909	0.083994	0.296498	8683.775391
7963.963968	0.083921	0.296498	8772.647461
7963.964919	0.083888	0.296498	8852.424805
7963.965781	0.083837	0.296498	8924.692383
7963.966827	0.083840	0.296498	9012.389648
7963.967841	0.083859	0.296498	9097.421875
7963.968724	0.083873	0.296498	9171.482422
7963.969648	0.083976	0.296498	9249.076172
7964.916711	0.901315	0.281581	418.210022
7964.917603	1.321425	0.281581	1596.920654
7964.918469	1.332660	0.281581	2751.004150
7964.919457	1.304128	0.281581	4039.482910
7964.920400	1.274143	0.281581	5241.000000
7964.921266	1.246567	0.281581	6320.527344
7964.922237	1.218160	0.281581	7503.361328
7964.923165	0.990352	0.281581	8422.407227
7964.924071	0.153314	0.281581	8561.309570
7964.924931	0.083862	0.281581	8633.431641
7964.925908	0.083954	0.281581	8715.454102
7964.926863	0.083873	0.281581	8795.552734
7964.927751	0.083796	0.281581	8869.963867
7964.928662	0.083811	0.281581	8946.315430
7964.929624	0.083844	0.281581	9026.973633
7964.930542	0.083837	0.281581	9103.935547
7964.931409	0.083910	0.281581	9176.685547
7964.932346	0.083844	0.281581	9255.247070
7966.013881	0.848928	0.298867	357.398773
7966.014802	1.318802	0.298867	1572.015869
7966.015771	1.330664	0.298867	2861.429199
7966.016704	1.302744	0.298867	4076.889648
7966.017584	1.274231	0.298867	5198.212891
7966.018563	1.244308	0.298867	6416.390137
7966.019521	1.215626	0.298867	7580.959961
7966.020417	0.981969	0.298867	8460.803711
7966.021335	0.151245	0.298867	8599.646484
7966.022276	0.083734	0.298867	8678.440430
7966.023211	0.083815	0.298867	8756.807617
7966.024083	0.083881	0.298867	8829.951172
7966.025003	0.083870	0.298867	8907.111328
7966.025945	0.083840	0.298867	8986.088867
7966.026870	0.083829	0.298867	9063.630859
7966.027744	0.083855	0.298867	9136.919922
7966.028712	0.083855	0.298867	9218.091797
7966.029648	0.083866	0.298867	9296.590820
7966.979038	0.885872	0.285948	408.386810
7966.979932	1.321143	0.285948	1589.488281
7966.980887	1.331338	0.285948	2860.916016
7966.981826	1.303041	0.285948	4084.471191
7966.982750	1.273488	0.285948	5261.173828
7966.983626	1.245710	0.285948	6352.416016
7966.984600	1.216582	0.285948	7537.367187
7966.985524	0.948007	0.285948	8413.325195
7966.986460	0.136538	0.285948	8541.125000
7966.987336	0.083822	0.285948	8614.552734
7966.988313	0.083910	0.285948	8696.533203
7966.989263	0.083859	0.285948	8776.199219
7966.990151	0.083990	0.285948	8850.783203
7966.991058	0.083939	0.285948	8926.916016
7966.992023	0.083983	0.285948	9007.959961
7966.992942	0.083936	0.285948	9085.096680
7966.993807	0.083939	0.285948	9157.704102
7966.994747	0.083961	0.285948	9236.627930
7968.078785	0.852898	0.298778	365.040314
7968.079662	1.316386	0.298778	1519.510376
7968.080601	1.332971	0.298778	2771.170410
7968.081538	1.304652	0.298778	3993.629395
7968.082456	1.275535	0.298778	5164.570312
7968.083329	1.248259	0.298778	6254.300781
7968.084277	1.219676	0.298778	7410.554199
7968.085232	1.023135	0.298778	8387.647461
7968.086154	0.163608	0.298778	8538.494141
7968.087036	0.083837	0.298778	8612.438477
7968.087999	0.083807	0.298778	8693.144531
7968.088951	0.083837	0.298778	8772.957031
7968.089845	0.083903	0.298778	8847.965820
7968.090757	0.083855	0.298778	8924.441406
7968.091683	0.083881	0.298778	9002.115234
7968.092619	0.083892	0.298778	9080.637695
7968.093478	0.083910	0.298778	9152.716797
7968.094513	0.083807	0.298778	9239.457031
7969.041357	0.874435	0.281891	386.500183
7969.042228	1.317206	0.281891	1533.786377
7969.043088	1.333012	0.281891	2680.176270
7969.044161	1.303008	0.281891	4078.303711
7969.045047	1.274476	0.281891	5207.489746
7969.045922	1.247205	0.281891	6298.793945
7969.046915	1.217856	0.281891	7508.125488
7969.047830	0.996086	0.281891	8419.544922
7969.048755	0.150223	0.281891	8558.501953
7969.049633	0.083756	0.281891	8632.040039
7969.050640	0.083804	0.281891	8716.430664
7969.051533	0.083815	0.281891	8791.277344
7969.052404	0.083906	0.281891	8864.359375
7969.053334	0.083866	0.281891	8942.354492
7969.054334	0.083851	0.281891	9026.206055
7969.055255	0.083851	0.281891	9103.433594
7969.056119	0.083822	0.281891	9175.855469
7969.057169	0.083895	0.281891	9263.945312
7970.143284	0.952383	0.298085	505.715302
7970.144249	1.330529	0.298085	1789.675415
7970.145124	1.329492	0.298085	2952.980957
7970.146021	1.301041	0.298085	4120.015137
7970.147116	1.267548	0.298085	5507.979492
7970.148011	1.239390	0.298085	6617.233398
7970.148875	1.213400	0.298085	7665.610840
7970.149925	0.738505	0.298085	8441.041016
7970.150882	0.095999	0.298085	8532.911133
7970.151749	0.083811	0.298085	8605.575195
7970.152616	0.083895	0.298085	8678.312500
7970.153734	0.083895	0.298085	8772.107422
7970.154609	0.083811	0.298085	8845.442383
7970.155481	0.083840	0.298085	8918.550781
7970.156534	0.083950	0.298085	9006.950195
7970.157509	0.083870	0.298085	9088.722656
7970.158385	0.083921	0.298085	9162.237305
7970.159244	0.083855	0.298085	9234.268555
7971.104197	0.858585	0.282741	370.908783
7971.105069	1.316473	0.282741	1518.873535
7971.106110	1.329657	0.282741	2903.046387
7971.107151	1.298181	0.282741	4254.453125
7971.108043	1.269646	0.282741	5386.977539
7971.109011	1.240250	0.282741	6587.540039
7971.110083	1.207855	0.282741	7882.360840
7971.111020	0.655393	0.282741	8496.463867
7971.111885	0.095892	0.282741	8579.411133
7971.112978	0.083877	0.282741	8671.088867
7971.113970	0.083811	0.282741	8754.229492
7971.114862	0.083866	0.282741	8829.038086
7971.115840	0.083914	0.282741	8911.105469
7971.116887	0.083877	0.282741	8998.924805
7971.117789	0.083862	0.282741	9074.568359
7971.118652	0.083888	0.282741	9146.963867
7971.119753	0.083906	0.282741	9239.344727
7971.120731	0.083892	0.282741	9321.390625
7972.207035	0.845643	0.298782	356.015808
7972.207951	1.316466	0.298782	1561.898682
7972.208904	1.331605	0.298782	2830.918457
7972.209832	1.303916	0.298782	4040.952637
7972.210708	1.275396	0.298782	5158.199219
7972.211682	1.245831	0.298782	6371.638672
7972.212607	1.217076	0.298782	7497.434570
7972.213536	1.014152	0.298782	8439.581055
7972.214404	0.164187	0.298782	8582.095703
7972.215391	0.083705	0.298782	8664.711914
7972.216349	0.083873	0.298782	8745.062500
7972.217227	0.083851	0.298782	8818.683594
7972.218137	0.083774	0.298782	8894.917969
7972.219089	0.083870	0.298782	8974.761719
7972.220018	0.083851	0.298782	9052.659180
7972.220898	0.083859	0.298782	9126.455078
7972.221818	0.083862	0.298782	9203.608398
7972.222770	0.083870	0.298782	9283.452148
7973.166524	0.869722	0.279793	368.761993
7973.167499	1.324728	0.279793	1660.371582
7973.168423	1.330642	0.279793	2889.884766
7973.169316	1.303521	0.279793	4053.928711
7973.170252	1.274209	0.279793	5246.588379
7973.171204	1.244432	0.279793	6431.288086
7973.172145	1.215912	0.279793	7575.460937
7973.173009	1.020784	0.279793	8457.417969
7973.174007	0.144247	0.279793	8601.375977
7973.174925	0.083716	0.279793	8678.227539
7973.175854	0.083917	0.279793	8756.186523
7973.176711	0.083804	0.279793	8828.005859
7973.177657	0.083840	0.279793	8907.318359
7973.178603	0.083800	0.279793	8986.592773
7973.179493	0.083939	0.279793	9061.298828
7973.180409	0.083837	0.279793	9138.092773
7973.181371	0.083815	0.279793	9218.722656
7973.182278	0.083826	0.279793	9294.752930
7974.271931	0.851338	0.297497	362.669952
7974.272890	1.316884	0.297497	1625.561279
7974.273868	1.330063	0.297497	2926.363281
7974.274801	1.301514	0.297497	4140.675781
7974.275668	1.273396	0.297497	5244.709961
7974.276715	1.241671	0.297497	6544.739746
7974.277592	1.214626	0.297497	7609.967285
7974.278459	0.977769	0.297497	8457.692383
7974.279357	0.150337	0.297497	8592.695312
7974.280399	0.083705	0.297497	8679.916016
7974.281296	0.083822	0.297497	8755.104492
7974.282170	0.083928	0.297497	8828.458008
7974.283159	0.083877	0.297497	8911.412109
7974.284088	0.083928	0.297497	8989.381836
7974.285008	0.083829	0.297497	9066.504883
7974.285872	0.083877	0.297497	9138.974609
7974.286912	0.083815	0.297497	9226.141602
7974.287782	0.083837	0.297497	9299.079102
7975.227344	0.873900	0.282906	388.011688
7975.228215	1.317352	0.282906	1535.425537
7975.229218	1.331093	0.282906	2870.511230
7975.230223	1.300239	0.282906	4177.251465
7975.231103	1.271971	0.282906	5296.586426
7975.231973	1.243868	0.282906	6378.751953
7975.233065	1.212056	0.282906	7702.316895
7975.233994	0.836400	0.282906	8479.333008
7975.234870	0.114338	0.282906	8579.493164
7975.235856	0.083888	0.282906	8662.207031
7975.236856	0.083844	0.282906	8746.050781
7975.237746	0.083818	0.282906	8820.649414
7975.238609	0.083873	0.282906	8893.032227
7975.239687	0.083892	0.282906	8983.467773
7975.240611	0.083884	0.282906	9060.976562
7975.241485	0.083844	0.282906	9134.255859
7975.242472	0.084001	0.282906	9217.165039
7975.243491	0.083899	0.282906	9302.658203
7976.338365	0.852773	0.295156	361.575928
7976.339434	1.327222	0.295156	1780.375977
7976.340392	1.327452	0.295156	3052.075195
7976.341267	1.299994	0.295156	4189.569824
7976.342224	1.269862	0.295156	5404.827637
7976.343267	1.237742	0.295156	6695.791992
7976.344151	1.210789	0.295156	7766.128906
7976.345018	0.860819	0.295156	8512.458984
7976.346092	0.100931	0.295156	8620.859375
7976.347021	0.083785	0.295156	8698.696289
7976.347886	0.083917	0.295156	8771.285156
7976.348815	0.083888	0.295156	8849.216797
7976.349874	0.083881	0.295156	8938.045898
7976.350765	0.083870	0.295156	9012.773437
7976.351628	0.083892	0.295156	9085.171875
7976.352650	0.083903	0.295156	9170.919922
7976.353617	0.083833	0.295156	9251.986328
7976.354494	0.083906	0.295156	9325.572266
7977.288124	0.876332	0.280626	374.193665
7977.289236	1.330155	0.280626	1853.325928
7977.290204	1.325976	0.280626	3136.871094
7977.291075	1.298445	0.280626	4267.816406
7977.292098	1.265504	0.280626	5562.427246
7977.293149	1.233593	0.280626	6858.933105
7977.294042	1.206793	0.280626	7936.599609
7977.294987	0.638452	0.280626	8539.936523
7977.296059	0.087642	0.280626	8633.888672
7977.297000	0.083822	0.280626	8712.765625
7977.297864	0.083870	0.280626	8785.228516
7977.298926	0.083833	0.280626	8874.258789
7977.299928	0.083840	0.280626	8958.266602
7977.300813	0.083906	0.280626	9032.523437
7977.301791	0.083895	0.280626	9114.573242
7977.302819	0.083928	0.280626	9200.851562
7977.303741	0.083888	0.280626	9278.196289
7977.304604	0.083873	0.280626	9350.579102
7978.401759	0.865594	0.300438	397.307861
7978.402644	1.319465	0.300438	1565.034668
7978.403510	1.333213	0.300438	2719.597168
7978.404470	1.305491	0.300438	3972.868164
7978.405407	1.274824	0.300438	5167.378418
7978.406338	1.246274	0.300438	6327.659668
7978.407201	1.219435	0.300438	7380.032227
7978.408149	1.032147	0.300438	8358.507812
7978.409112	0.165520	0.300438	8517.903320
7978.410007	0.083815	0.300438	8592.916992
7978.410920	0.083939	0.300438	8669.553711
7978.411869	0.083811	0.300438	8749.090820
7978.412789	0.083833	0.300438	8826.216797
7978.413683	0.083943	0.300438	8901.261719
7978.414611	0.083884	0.300438	8979.106445
7978.415563	0.083914	0.300438	9058.992187
7978.416487	0.083881	0.300438	9136.498047
7978.417348	0.083829	0.300438	9208.674805
7979.348419	0.859662	0.283462	369.654602
7979.349291	1.316103	0.283462	1517.296875
7979.350205	1.333044	0.283462	2735.699463
7979.351170	1.304967	0.283462	3994.992676
7979.352098	1.275121	0.283462	5178.304687
7979.352968	1.247611	0.283462	6263.726562
7979.353951	1.218889	0.283462	7461.894531
7979.354894	1.010252	0.283462	8414.561523
7979.355811	0.157863	0.283462	8559.321289
7979.356667	0.083840	0.283462	8631.088867
7979.357638	0.083903	0.283462	8712.558594
7979.358584	0.083903	0.283462	8791.930664
7979.359469	0.083862	0.283462	8866.148437
7979.360382	0.083877	0.283462	8942.728516
7979.361348	0.083826	0.283462	9023.704102
7979.362264	0.083818	0.283462	9100.481445
7979.363134	0.083914	0.283462	9173.486328
7979.364142	0.083796	0.283462	9257.953125
7980.467181	0.892053	0.301034	421.049103
7980.468103	1.323662	0.301034	1641.465576
7980.468995	1.331624	0.301034	2829.273926
7980.469912	1.304513	0.301034	4025.512207
7980.470877	1.273700	0.301034	5254.632812
7980.471803	1.244630	0.301034	6407.160156
7980.472671	1.218234	0.301034	7464.586914
7980.473629	0.992362	0.301034	8415.269531
7980.474572	0.146177	0.301034	8553.114258
7980.475500	0.083774	0.301034	8630.856445
7980.476362	0.083892	0.301034	8703.170898
7980.477307	0.083928	0.301034	8782.483398
7980.478263	0.083943	0.301034	8862.732422
7980.479153	0.083947	0.301034	8937.445312
7980.480066	0.083954	0.301034	9014.094727
7980.481008	0.083877	0.301034	9093.106445
7980.481911	0.083928	0.301034	9168.893555
7980.482776	0.083899	0.301034	9241.465820
7981.408184	0.848364	0.280981	358.009705
7981.409237	1.326061	0.280981	1754.351807
7981.410129	1.329166	0.280981	2939.968262
7981.411058	1.301096	0.280981	4148.686523
7981.411924	1.271942	0.280981	5250.188477
7981.412973	1.240855	0.280981	6551.844727
7981.413853	1.213912	0.280981	7620.087891
7981.414729	0.971938	0.280981	8471.505859
7981.415730	0.133645	0.280981	8605.284180
7981.416650	0.083723	0.280981	8682.309570
7981.417582	0.083818	0.280981	8760.428711
7981.418448	0.083870	0.280981	8833.059570
7981.419481	0.083899	0.280981	8919.727539
7981.420372	0.083840	0.280981	8994.429687
7981.421244	0.083862	0.280981	9067.557617
7981.422208	0.083796	0.280981	9148.336914
7981.423163	0.083796	0.280981	9228.362305
7981.424086	0.083873	0.280981	9305.777344
7982.532110	0.899597	0.303741	456.995361
7982.533077	1.328423	0.303741	1741.580200
7982.534008	1.328632	0.303741	2978.536133
7982.534880	1.301466	0.303741	4113.414551
7982.535929	1.268525	0.303741	5444.097656
7982.536817	1.240715	0.303741	6545.853027
7982.537686	1.214282	0.303741	7601.064453
7982.538627	0.869099	0.303741	8418.886719
7982.539609	0.109816	0.303741	8526.725586
7982.540536	0.083719	0.303741	8604.333984
7982.541418	0.083881	0.303741	8678.316406
7982.542465	0.083866	0.303741	8766.124023
7982.543369	0.083818	0.303741	8841.895508
7982.544241	0.083800	0.303741	8914.968750
7982.545100	0.083851	0.303741	8986.997070
7982.546136	0.083837	0.303741	9073.851562
7982.547016	0.083877	0.303741	9147.663086
7982.547880	0.083877	0.303741	9220.132812
7983.470012	0.850455	0.280369	361.443512
7983.470878	1.314855	0.280369	1500.107666
7983.471906	1.330411	0.280369	2867.770508
7983.472877	1.301345	0.280369	4131.376953
7983.473755	1.273019	0.280369	5249.087402
7983.474640	1.244436	0.280369	6350.413086
7983.475753	1.212744	0.280369	7700.197266
7983.476657	0.872157	0.280369	8488.626953
7983.477520	0.122175	0.280369	8594.064453
7983.478606	0.083829	0.280369	8685.103516
7983.479573	0.083903	0.280369	8766.237305
7983.480450	0.083936	0.280369	8839.848633
7983.481336	0.083936	0.280369	8914.215820
7983.482431	0.083829	0.280369	9006.008789
7983.483315	0.083910	0.280369	9080.185547
7983.484173	0.084012	0.280369	9152.268555
7983.485203	0.084016	0.280369	9238.804687
7983.486173	0.083910	0.280369	9320.197266
7984.596917	0.847020	0.308949	356.595520
7984.597930	1.322238	0.308949	1696.022217
7984.598989	1.326552	0.308949	3100.840332
7984.599888	1.297782	0.308949	4267.546387
7984.600771	1.268793	0.308949	5387.890625
7984.601869	1.235753	0.308949	6744.747559
7984.602831	1.207196	0.308949	7906.070312
7984.603710	0.705740	0.308949	8526.416016
7984.604747	0.091655	0.308949	8621.462891
7984.605775	0.083848	0.308949	8707.658203
7984.606670	0.083943	0.308949	8782.787109
7984.607614	0.083979	0.308949	8862.063477
7984.608669	0.083950	0.308949	8950.630859
7984.609596	0.083943	0.308949	9028.446289
7984.610458	0.083888	0.308949	9100.757812
7984.611508	0.084009	0.308949	9188.966797
7984.612520	0.083925	0.308949	9273.898437
7984.613397	0.083983	0.308949	9347.551758
7985.532857	0.847694	0.283430	357.726898
7985.533812	1.319626	0.283430	1617.970215
7985.534762	1.330920	0.283430	2882.344482
7985.535638	1.304125	0.283430	4024.757812
7985.536515	1.275520	0.283430	5143.388672
7985.537479	1.245542	0.283430	6344.091309
7985.538438	1.217076	0.283430	7511.267578
7985.539329	1.037468	0.283430	8435.652344
7985.540253	0.169171	0.283430	8591.966797
7985.541214	0.083723	0.283430	8672.424805
7985.542122	0.083829	0.283430	8748.541992
7985.543004	0.083859	0.283430	8822.504883
7985.543931	0.083862	0.283430	8900.245117
7985.544884	0.083910	0.283430	8980.210937
7985.545759	0.083873	0.283430	9053.599609
7985.546672	0.083921	0.283430	9130.219727
7985.547627	0.083829	0.283430	9210.276367
7985.548555	0.083914	0.283430	9288.148437
7986.657757	0.888995	0.315403	399.158905
7986.658633	1.318414	0.315403	1554.089844
7986.659497	1.332931	0.315403	2705.742187
7986.660450	1.305297	0.315403	3949.689941
7986.661407	1.274762	0.315403	5169.637207
7986.662301	1.247051	0.315403	6284.500488
7986.663224	1.219402	0.315403	7410.008789
7986.664185	1.039025	0.315403	8408.511719
7986.665115	0.159635	0.315403	8556.972656
7986.665993	0.083866	0.315403	8630.607422
7986.666928	0.083873	0.315403	8709.029297
7986.667882	0.083917	0.315403	8789.085937
7986.668804	0.083899	0.315403	8866.440430
7986.669665	0.083899	0.315403	8938.677734
7986.670634	0.083906	0.315403	9019.982422
7986.671552	0.083840	0.315403	9096.948242
7986.672420	0.083862	0.315403	9169.740234
7986.673340	0.083855	0.315403	9246.886719
7987.600350	0.888270	0.281823	407.716034
7987.601244	1.320667	0.281823	1588.391968
7987.602112	1.332557	0.281823	2745.051758
7987.603089	1.304220	0.281823	4019.274658
7987.604060	1.273645	0.281823	5255.983887
7987.604952	1.245410	0.281823	6366.889648
7987.605877	1.217933	0.281823	7493.478027
7987.606807	1.000942	0.281823	8424.354492
7987.607745	0.147671	0.281823	8562.870117
7987.608624	0.083749	0.281823	8636.485352
7987.609569	0.083804	0.281823	8715.679687
7987.610537	0.083785	0.281823	8796.784180
7987.611424	0.083873	0.281823	8871.179687
7987.612496	0.083796	0.281823	8961.009766
7987.613459	0.083807	0.281823	9041.715820
7987.614381	0.083906	0.281823	9119.077148
7987.615244	0.083840	0.281823	9191.431641
7987.616215	0.083829	0.281823	9272.830078
7988.721088	0.854066	0.301417	363.832184
7988.722045	1.318334	0.301417	1625.477539
7988.722974	1.330964	0.301417	2861.943359
7988.723898	1.303239	0.301417	4066.135742
7988.724770	1.274938	0.301417	5177.881348
7988.725737	1.244648	0.301417	6381.456543
7988.726664	1.216245	0.301417	7508.916016
7988.727600	0.990469	0.301417	8435.995117
7988.728477	0.154365	0.301417	8571.373047
7988.729444	0.083771	0.301417	8652.378906
7988.730393	0.083829	0.301417	8731.932617
7988.731282	0.083895	0.301417	8806.515625
7988.732192	0.083873	0.301417	8882.839844
7988.733146	0.083888	0.301417	8962.869141
7988.734053	0.083884	0.301417	9038.952148
7988.734911	0.083840	0.301417	9110.886719
7988.735927	0.083778	0.301417	9196.004883
7988.736848	0.083822	0.301417	9273.205078
7989.657015	0.850858	0.273818	359.062134
7989.658047	1.325544	0.273818	1727.024048
7989.659008	1.328426	0.273818	3003.641846
7989.659883	1.301202	0.273818	4142.193848
7989.660810	1.271444	0.273818	5320.822266
7989.661877	1.238848	0.273818	6642.672852
7989.662776	1.211624	0.273818	7731.922363
7989.663655	0.878192	0.273818	8503.853516
7989.664711	0.103169	0.273818	8612.799805
7989.665678	0.083760	0.273818	8693.795898
7989.666547	0.083866	0.273818	8766.675781
7989.667469	0.083877	0.273818	8844.010742
7989.668535	0.083950	0.273818	8933.501953
7989.669412	0.083917	0.273818	9007.097656
7989.670275	0.083848	0.273818	9079.458008
7989.671320	0.083976	0.273818	9167.212891
7989.672279	0.083844	0.273818	9247.619141
7989.673143	0.083906	0.273818	9320.114258
7990.784549	0.935526	0.301795	481.795959
7990.785509	1.328976	0.301795	1757.612793
7990.786379	1.329972	0.301795	2914.688477
7990.787432	1.297800	0.301795	4281.272461
7990.788477	1.264644	0.301795	5602.825195
7990.789364	1.236958	0.301795	6700.006836
7990.790311	1.208899	0.301795	7844.833984
7990.791369	0.571110	0.301795	8449.068359
7990.792305	0.088975	0.301795	8532.348633
7990.793164	0.083800	0.301795	8604.333008
7990.794220	0.083987	0.301795	8693.023437
7990.795239	0.083862	0.301795	8778.479492
7990.796110	0.083979	0.301795	8851.625977
7990.797073	0.083947	0.301795	8932.466797
7990.798130	0.083906	0.301795	9021.155273
7990.799048	0.083888	0.301795	9098.164062
7990.799915	0.083903	0.301795	9170.907227
7990.800990	0.083950	0.301795	9261.153320
7991.727078	0.888864	0.265629	412.432678
7991.727972	1.320637	0.265629	1593.082275
7991.728843	1.332279	0.265629	2753.497314
7991.729830	1.303901	0.265629	4040.447754
7991.730785	1.273616	0.265629	5256.750977
7991.731674	1.245538	0.265629	6364.034668
7991.732574	1.218281	0.265629	7460.487793
7991.733520	0.984067	0.265629	8391.416016
7991.734491	0.143156	0.265629	8530.419922
7991.735384	0.083800	0.265629	8605.252930
7991.736299	0.083833	0.265629	8681.959961
7991.737262	0.083917	0.265629	8762.772461
7991.738183	0.083855	0.265629	8840.002930
7991.739047	0.083976	0.265629	8912.557617
7991.740021	0.083910	0.265629	8994.286133
7991.740944	0.083800	0.265629	9071.633789
7991.741807	0.083906	0.265629	9144.044922
7991.742779	0.083914	0.265629	9225.609375
7992.842756	0.919801	0.297187	448.862885
7992.843638	1.322307	0.297187	1615.137817
7992.844566	1.331210	0.297187	2850.500488
7992.845432	1.304586	0.297187	3980.271973
7992.846391	1.273868	0.297187	5201.912109
7992.847331	1.244828	0.297187	6372.050293
7992.848214	1.218109	0.297187	7447.640625
7992.849177	1.009618	0.297187	8419.902344
7992.850140	0.142972	0.297187	8557.584961
7992.851047	0.083654	0.297187	8633.458984
7992.851906	0.083837	0.297187	8705.474609
7992.852867	0.083888	0.297187	8786.090820
7992.853819	0.083785	0.297187	8865.854492
7992.854707	0.083844	0.297187	8940.307617
7992.855628	0.083833	0.297187	9017.517578
7992.856581	0.083855	0.297187	9097.431641
7992.857479	0.083921	0.297187	9172.792969
7992.858369	0.083848	0.297187	9247.416992
7993.789902	0.867865	0.274826	375.785522
7993.790772	1.316682	0.274826	1521.298950
7993.791754	1.331155	0.274826	2828.492920
7993.792668	1.303165	0.274826	4019.585937
7993.793596	1.273898	0.274826	5201.762695
7993.794469	1.245956	0.274826	6289.482422
7993.795474	1.216483	0.274826	7512.047852
7993.796407	0.991549	0.274826	8437.163086
7993.797287	0.153303	0.274826	8572.070312
7993.798196	0.083804	0.274826	8648.248047
7993.799161	0.083873	0.274826	8729.185547
7993.800081	0.083899	0.274826	8806.373047
7993.800938	0.083870	0.274826	8878.249023
7993.801899	0.083760	0.274826	8958.742187
7993.802861	0.083818	0.274826	9039.375000
7993.803747	0.083877	0.274826	9113.690430
7993.804944	0.083855	0.274826	9214.064453
7993.805872	0.083774	0.274826	9291.806641
7994.902459	0.853572	0.301441	362.768005
7994.903334	1.315444	0.301441	1513.781738
7994.904197	1.333132	0.301441	2664.274902
7994.905209	1.304835	0.301441	3984.768066
7994.906138	1.275234	0.301441	5169.460937
7994.907021	1.247461	0.301441	6270.968750
7994.907983	1.219486	0.301441	7444.114258
7994.908921	1.028690	0.301441	8409.025391
7994.909830	0.168878	0.301441	8562.536133
7994.910687	0.083815	0.301441	8634.365234
7994.911717	0.083881	0.301441	8720.762695
7994.912627	0.083899	0.301441	8797.110352
7994.913517	0.083851	0.301441	8871.738281
7994.914377	0.083811	0.301441	8943.815430
7994.915373	0.083851	0.301441	9027.331055
7994.916311	0.083855	0.301441	9105.987305
7994.917195	0.083917	0.301441	9180.169922
7994.918103	0.083811	0.301441	9256.270508
7995.854357	0.918475	0.272364	462.911591
7995.855257	1.325321	0.272364	1655.700562
7995.856137	1.331268	0.272364	2827.216797
7995.857125	1.301744	0.272364	4113.340332
7995.858139	1.268840	0.272364	5399.944336
7995.859038	1.241107	0.272364	6515.699707
7995.859903	1.214213	0.272364	7565.993652
7995.861007	0.763202	0.272364	8408.568359
7995.861929	0.099752	0.272364	8500.540039
7995.862810	0.083793	0.272364	8574.361328
7995.863794	0.083932	0.272364	8656.950195
7995.864787	0.083807	0.272364	8740.170898
7995.865674	0.083881	0.272364	8814.573242
7995.866532	0.083873	0.272364	8886.536133
7995.867613	0.083807	0.272364	8977.131836
7995.868525	0.083829	0.272364	9053.583984
7995.869393	0.083888	0.272364	9126.398437
7995.870339	0.083921	0.272364	9205.788086
7996.963854	0.918907	0.302045	463.129364
7996.964831	1.329221	0.302045	1761.778442
7996.965698	1.329771	0.302045	2914.689453
7996.966774	1.296592	0.302045	4309.822266
7996.967824	1.263395	0.302045	5636.386719
7996.968721	1.235647	0.302045	6744.762207
7996.969666	1.207350	0.302045	7885.708008
7996.970748	0.505345	0.302045	8432.492187
7996.971696	0.086862	0.302045	8514.836914
7996.972555	0.083756	0.302045	8586.783203
7996.973634	0.083903	0.302045	8677.314453
7996.974647	0.083738	0.302045	8762.140625
7996.975539	0.083899	0.302045	8836.978516
7996.976499	0.083895	0.302045	8917.517578
7996.977542	0.083870	0.302045	9004.993164
7996.978447	0.083844	0.302045	9080.872070
7996.979304	0.083851	0.302045	9152.732422
7996.980358	0.083870	0.302045	9241.130859
7997.916657	0.886187	0.274648	416.507660
7997.917532	1.320454	0.274648	1571.905029
7997.918407	1.332374	0.274648	2737.732422
7997.919362	1.304594	0.274648	3983.619141
7997.920321	1.274004	0.274648	5205.388672
7997.921224	1.245813	0.274648	6330.357422
7997.922142	1.218607	0.274648	7449.039062
7997.923069	1.008944	0.274648	8384.330078
7997.924034	0.148345	0.274648	8527.482422
7997.924921	0.083818	0.274648	8601.829102
7997.925849	0.083859	0.274648	8679.650391
7997.926806	0.083767	0.274648	8759.815430
7997.927692	0.083881	0.274648	8834.133789
7997.928597	0.083943	0.274648	8910.102539
7997.929526	0.083881	0.274648	8988.027344
7997.930470	0.083862	0.274648	9067.193359
7997.931364	0.083859	0.274648	9142.163086
7997.932273	0.083807	0.274648	9218.343750
7999.025139	0.912612	0.303862	439.879181
7999.026079	1.325197	0.303862	1685.563965
7999.027005	1.329902	0.303862	2917.053467
7999.027873	1.302997	0.303862	4048.054687
7999.028842	1.272455	0.303862	5281.063477
7999.029797	1.243165	0.303862	6468.286133
7999.030696	1.215762	0.303862	7561.255859
7999.031611	0.981694	0.303862	8459.505859
7999.032565	0.138131	0.303862	8591.283203
7999.033498	0.083738	0.303862	8669.410156
7999.034369	0.083917	0.303862	8742.501953
7999.035288	0.083899	0.303862	8819.605469
7999.036250	0.083873	0.303862	8900.291992
7999.037173	0.083862	0.303862	8977.697266
7999.038051	0.083877	0.303862	9051.340820
7999.039019	0.083782	0.303862	9132.441406
7999.039937	0.083899	0.303862	9209.460937
7999.040869	0.083851	0.303862	9287.610352
7999.979963	0.848899	0.272368	359.933167
7999.980963	1.320282	0.272368	1680.215088
7999.981841	1.330704	0.272368	2848.573486
7999.982765	1.303187	0.272368	4052.718506
7999.983647	1.274326	0.272368	5176.674316
7999.984630	1.244564	0.272368	6400.081055
7999.985565	1.216263	0.272368	7537.287109
7999.986453	1.020743	0.272368	8443.707031
7999.987356	0.164458	0.272368	8592.212891
7999.988330	0.083763	0.272368	8673.798828
7999.989272	0.083873	0.272368	8752.807617
7999.990161	0.083793	0.272368	8827.299805
7999.991093	0.083873	0.272368	8905.469727
7999.992050	0.083822	0.272368	8985.687500
7999.992921	0.083881	0.272368	9058.747070
7999.993812	0.083840	0.272368	9133.449219
7999.994799	0.083778	0.272368	9216.137695
7999.995721	0.083837	0.272368	9293.435547
8001.088968	0.864485	0.297602	376.050903
8001.089836	1.315843	0.297602	1518.203003
8001.090901	1.329565	0.297602	2934.190186
8001.091782	1.302484	0.297602	4081.678711
8001.092652	1.274502	0.297602	5190.495117
8001.093607	1.244971	0.297602	6379.442383
8001.094553	1.216143	0.297602	7529.913086
8001.095472	0.987316	0.297602	8437.255859
8001.096354	0.152794	0.297602	8572.020508
8001.097378	0.083760	0.297602	8657.790039
8001.098277	0.083855	0.297602	8733.175781
8001.099197	0.083870	0.297602	8810.335937
8001.100058	0.083947	0.297602	8882.614258
8001.101046	0.083862	0.297602	8965.470703
8001.101997	0.083910	0.297602	9045.268555
8001.102887	0.083939	0.297602	9119.974609
8001.103865	0.083969	0.297602	9202.095703
8001.104774	0.083826	0.297602	9278.292969
8002.041790	0.857142	0.274479	367.714050
8002.042657	1.315723	0.274479	1508.445557
8002.043777	1.328342	0.274479	2996.188965
8002.044703	1.299357	0.274479	4199.393555
8002.045582	1.271367	0.274479	5316.925293
8002.046605	1.240023	0.274479	6585.468750
8002.047603	1.209672	0.274479	7792.721191
8002.048496	0.801394	0.274479	8508.366211
8002.049352	0.110398	0.274479	8602.867187
8002.050454	0.083789	0.274479	8695.203125
8002.051352	0.083826	0.274479	8770.478516
8002.052218	0.083833	0.274479	8843.078125
8002.053203	0.083859	0.274479	8925.678711
8002.054201	0.083804	0.274479	9009.314453
8002.055087	0.083899	0.274479	9083.648437
8002.055948	0.083895	0.274479	9155.881836
8002.057056	0.083921	0.274479	9248.866211
8002.057982	0.083884	0.274479	9326.542969
8003.152919	0.927850	0.300305	469.492249
8003.153943	1.330994	0.300305	1832.429687
8003.154835	1.327896	0.300305	3016.912598
8003.155793	1.298225	0.300305	4260.612305
8003.156862	1.263812	0.300305	5611.627441
8003.157794	1.235295	0.300305	6762.922852
8003.158668	1.208591	0.300305	7819.231445
8003.159753	0.560724	0.300305	8427.617187
8003.160751	0.086990	0.300305	8514.432617
8003.161648	0.083873	0.300305	8589.666992
8003.162627	0.083932	0.300305	8671.835937
8003.163681	0.083939	0.300305	8760.307617
8003.164593	0.083917	0.300305	8836.839844
8003.165453	0.083979	0.300305	8909.062500
8003.166548	0.083954	0.300305	9000.992187
8003.167507	0.083815	0.300305	9081.370117
8003.168381	0.083932	0.300305	9154.726562
8003.169388	0.083961	0.300305	9239.275391
8004.103142	0.870560	0.274523	405.681091
8004.104029	1.320904	0.274523	1577.323486
8004.104923	1.332268	0.274523	2768.371094
8004.105880	1.303480	0.274523	4015.801758
8004.106835	1.273345	0.274523	5231.845703
8004.107729	1.245524	0.274523	6345.343750
8004.108729	1.216315	0.274523	7561.658203
8004.109784	0.807931	0.274523	8414.025391
8004.110773	0.099745	0.274523	8512.672852
8004.111651	0.083859	0.274523	8586.300781
8004.112657	0.084056	0.274523	8670.861328
8004.113707	0.083965	0.274523	8759.024414
8004.114582	0.083983	0.274523	8832.509766
8004.115464	0.083910	0.274523	8906.518555
8004.116553	0.084027	0.274523	8998.024414
8004.117506	0.083899	0.274523	9077.980469
8004.118376	0.083994	0.274523	9151.055664
8004.119394	0.083965	0.274523	9236.532227
8005.215214	0.908013	0.301280	424.041931
8005.216125	1.323278	0.301280	1629.547852
8005.217014	1.331715	0.301280	2813.442383
8005.217940	1.303663	0.301280	4020.634766
8005.218917	1.272598	0.301280	5263.962891
8005.219853	1.243652	0.301280	6428.021484
8005.220718	1.217139	0.301280	7480.846680
8005.221700	0.975088	0.301280	8438.382812
8005.222672	0.133162	0.301280	8567.815430
8005.223566	0.083818	0.301280	8642.749023
8005.224448	0.083881	0.301280	8716.731445
8005.225398	0.083903	0.301280	8796.438477
8005.226344	0.083895	0.301280	8875.803711
8005.227217	0.083892	0.301280	8949.041016
8005.228129	0.083936	0.301280	9025.589844
8005.229088	0.083837	0.301280	9105.989258
8005.230012	0.083859	0.301280	9183.474609
8005.230888	0.083903	0.301280	9256.973633
8006.162878	0.850426	0.277335	360.580627
8006.163789	1.315151	0.277335	1558.683594
8006.164744	1.331620	0.277335	2830.380615
8006.165668	1.303711	0.277335	4035.009521
8006.166547	1.275102	0.277335	5155.824707
8006.167470	1.245872	0.277335	6305.764160
8006.168433	1.217399	0.277335	7478.119141
8006.169357	1.028602	0.277335	8428.547852
8006.170235	0.168193	0.277335	8576.221680
8006.171212	0.083800	0.277335	8658.094727
8006.172140	0.083917	0.277335	8735.969727
8006.172999	0.083899	0.277335	8808.039062
8006.173991	0.083892	0.277335	8891.259766
8006.174946	0.083895	0.277335	8971.379883
8006.175875	0.083870	0.277335	9049.294922
8006.176735	0.083881	0.277335	9121.432617
8006.177679	0.083870	0.277335	9200.605469
8006.178638	0.083884	0.277335	9281.050781
8007.277583	0.910693	0.301437	454.436005
8007.278510	1.325006	0.301437	1682.716553
8007.279384	1.330785	0.301437	2845.822510
8007.280298	1.303297	0.301437	4037.036133
8007.281262	1.272675	0.301437	5263.894531
8007.282194	1.243612	0.301437	6422.940918
8007.283076	1.216890	0.301437	7496.237305
8007.284028	0.952460	0.301437	8402.978516
8007.284994	0.129430	0.301437	8528.007812
8007.285919	0.083756	0.301437	8605.482422
8007.286782	0.083818	0.301437	8677.817383
8007.287757	0.083866	0.301437	8759.586914
8007.288706	0.083840	0.301437	8839.151367
8007.289580	0.083859	0.301437	8912.443359
8007.290472	0.083899	0.301437	8987.281250
8007.291420	0.083855	0.301437	9066.775391
8007.292371	0.083917	0.301437	9146.581055
8007.293264	0.083892	0.301437	9221.496094
8008.222653	0.852100	0.280268	365.550720
8008.223597	1.321666	0.280268	1613.203613
8008.224534	1.330510	0.280268	2859.891602
8008.225467	1.302810	0.280268	4075.413574
8008.226338	1.273953	0.280268	5185.026367
8008.227343	1.243748	0.280268	6434.992676
8008.228278	1.215458	0.280268	7571.445801
8008.229159	1.001466	0.280268	8453.737305
8008.230093	0.156951	0.280268	8600.329102
8008.231023	0.083760	0.280268	8678.225586
8008.231923	0.083903	0.280268	8753.738281
8008.232794	0.083870	0.280268	8826.789062
8008.233834	0.083862	0.280268	8914.005859
8008.234751	0.083954	0.280268	8990.991211
8008.235635	0.083917	0.280268	9065.173828
8008.236563	0.083969	0.280268	9143.096680
8008.237494	0.083921	0.280268	9221.226562
8008.238442	0.083943	0.280268	9300.804687
8009.341907	0.869652	0.300514	386.125519
8009.342770	1.316653	0.300514	1522.396973
8009.343721	1.331448	0.300514	2788.604004
8009.344645	1.304319	0.300514	3993.794434
8009.345537	1.275469	0.300514	5131.512695
8009.346479	1.247051	0.300514	6306.234375
8009.347418	1.217629	0.300514	7449.588379
8009.348368	1.014108	0.300514	8412.990234
8009.349264	0.159950	0.300514	8556.305664
8009.350198	0.083848	0.300514	8634.619141
8009.351148	0.083844	0.300514	8714.270508
8009.352031	0.083928	0.300514	8788.378906
8009.352987	0.083811	0.300514	8868.501953
8009.353918	0.083818	0.300514	8946.537109
8009.354839	0.083862	0.300514	9023.774414
8009.355722	0.083914	0.300514	9097.870117
8009.356667	0.083895	0.300514	9177.151367
8009.357614	0.083844	0.300514	9256.551758
8010.283472	0.875134	0.282169	385.934204
8010.284361	1.318389	0.282169	1557.981689
8010.285223	1.332140	0.282169	2706.286133
8010.286333	1.300763	0.282169	4150.132812
8010.287227	1.271675	0.282169	5287.010254
8010.288117	1.244312	0.282169	6394.447266
8010.289115	1.214396	0.282169	7606.414062
8010.290119	0.841934	0.282169	8451.715820
8010.291007	0.113298	0.282169	8552.325195
8010.291869	0.083818	0.282169	8624.576172
8010.292978	0.083958	0.282169	8717.685547
8010.293886	0.083873	0.282169	8793.842773
8010.294763	0.083895	0.282169	8867.418945
8010.295775	0.084001	0.282169	8952.428711
8010.296770	0.083921	0.282169	9035.929687
8010.297655	0.083961	0.282169	9110.235352
8010.298512	0.083892	0.282169	9182.130859
8010.299616	0.084038	0.282169	9274.909180
8011.407305	0.855831	0.294609	372.286591
8011.408166	1.314884	0.294609	1504.401733
8011.409231	1.329485	0.294609	2920.303223
8011.410169	1.300873	0.294609	4140.521973
8011.411042	1.272748	0.294609	5251.630859
8011.411969	1.243674	0.294609	6404.517090
8011.413038	1.211942	0.294609	7700.083008
8011.413940	0.871835	0.294609	8486.477539
8011.414801	0.122410	0.294609	8591.872070
8011.415837	0.083811	0.294609	8678.700195
8011.416795	0.083862	0.294609	8759.040039
8011.417668	0.083873	0.294609	8832.261719
8011.418566	0.083899	0.294609	8907.602539
8011.419641	0.083899	0.294609	8997.793945
8011.420516	0.083851	0.294609	9071.164062
8011.421373	0.083947	0.294609	9143.106445
8011.422438	0.083910	0.294609	9232.470703
8011.423406	0.083815	0.294609	9313.603516
8012.342802	0.914169	0.287281	465.311859
8012.343688	1.323809	0.287281	1638.206299
8012.344549	1.330836	0.287281	2784.056152
8012.345657	1.298547	0.287281	4222.846680
8012.346635	1.267507	0.287281	5462.468750
8012.347503	1.240338	0.287281	6539.082031
8012.348566	1.208518	0.287281	7823.736816
8012.349610	0.586681	0.287281	8436.231445
8012.350502	0.090824	0.287281	8517.246094
8012.351436	0.083818	0.287281	8595.532227
8012.352502	0.083987	0.287281	8685.062500
8012.353443	0.083895	0.287281	8764.007812
8012.354311	0.083928	0.287281	8836.857422
8012.355356	0.083932	0.287281	8924.566406
8012.356380	0.083877	0.287281	9010.456055
8012.357272	0.083917	0.287281	9085.310547
8012.358230	0.083950	0.287281	9165.734375
8012.359285	0.083961	0.287281	9254.313477
8013.470651	0.848218	0.291990	359.644348
8013.471672	1.321102	0.291990	1708.489746
8013.472740	1.326024	0.291990	3124.683594
8013.473622	1.297650	0.291990	4269.210937
8013.474489	1.268664	0.291990	5369.143066
8013.475592	1.236204	0.291990	6732.675781
8013.476557	1.207321	0.291990	7897.740234
8013.477421	0.732436	0.291990	8530.565430
8013.478469	0.092699	0.291990	8627.713867
8013.479505	0.083760	0.291990	8714.489258
8013.480390	0.083859	0.291990	8788.704102
8013.481317	0.083899	0.291990	8866.478516
8013.482378	0.083881	0.291990	8955.475586
8013.483319	0.083774	0.291990	9034.307617
8013.484187	0.083936	0.291990	9107.164062
8013.485234	0.083987	0.291990	9195.098633
8013.486252	0.083910	0.291990	9280.518555
8013.487146	0.083914	0.291990	9355.537109
8014.401512	0.881353	0.292598	409.828918
8014.402410	1.321135	0.292598	1596.208252
8014.403279	1.332158	0.292598	2753.853760
8014.404265	1.303770	0.292598	4039.370605
8014.405220	1.273000	0.292598	5255.085937
8014.406113	1.244853	0.292598	6366.740234
8014.407010	1.217805	0.292598	7459.111328
8014.407962	0.986012	0.292598	8397.794922
8014.408898	0.149839	0.292598	8538.043945
8014.409755	0.083774	0.292598	8609.838867
8014.410708	0.083866	0.292598	8689.762695
8014.411664	0.083895	0.292598	8769.966797
8014.412555	0.083840	0.292598	8844.668945
8014.413475	0.083837	0.292598	8921.798828
8014.414409	0.083862	0.292598	9000.125977
8014.415344	0.083917	0.292598	9078.588867
8014.416233	0.083881	0.292598	9153.159180
8014.417161	0.083862	0.292598	9230.983398
8015.535559	0.864214	0.294456	375.933044
8015.536426	1.316122	0.294456	1517.010742
8015.537406	1.331287	0.294456	2821.671631
8015.538365	1.302847	0.294456	4071.101562
8015.539259	1.274044	0.294456	5210.097168
8015.540168	1.246011	0.294456	6342.720703
8015.541133	1.217223	0.294456	7517.340820
8015.542064	0.996746	0.294456	8445.310547
8015.542939	0.158635	0.294456	8584.116211
8015.543901	0.083782	0.294456	8664.713867
8015.544841	0.083895	0.294456	8743.575195
8015.545747	0.083976	0.294456	8819.657227
8015.546623	0.083826	0.294456	8893.088867
8015.547586	0.083914	0.294456	8973.897461
8015.548515	0.083961	0.294456	9051.897461
8015.549394	0.083921	0.294456	9125.664062
8015.550355	0.083870	0.294456	9206.262695
8015.551271	0.083921	0.294456	9283.133789
8016.459290	0.911715	0.305123	472.268372
8016.460198	1.324607	0.305123	1675.011475
8016.461131	1.329855	0.305123	2915.766113
8016.461993	1.302887	0.305123	4038.854736
8016.462954	1.271796	0.305123	5261.050293
8016.463907	1.242261	0.305123	6444.924805
8016.464837	1.214634	0.305123	7574.534180
8016.465719	0.960359	0.305123	8421.570312
8016.466704	0.128925	0.305123	8548.560547
8016.467627	0.083756	0.305123	8625.867187
8016.468494	0.083903	0.305123	8698.610352
8016.469471	0.083899	0.305123	8780.580078
8016.470409	0.083895	0.305123	8859.273437
8016.471333	0.083903	0.305123	8936.799805
8016.472195	0.083954	0.305123	9009.167969
8016.473163	0.083892	0.305123	9090.375000
8016.474096	0.083914	0.305123	9168.666016
8016.474985	0.083954	0.305123	9243.300781
8017.601971	0.855710	0.295660	358.542664
8017.602930	1.322157	0.295660	1626.491211
8017.603862	1.330587	0.295660	2866.598389
8017.604755	1.303674	0.295660	4030.779541
8017.605705	1.274249	0.295660	5241.316406
8017.606635	1.244063	0.295660	6398.294434
8017.607575	1.216219	0.295660	7541.540527
8017.608468	1.020703	0.295660	8453.028320
8017.609407	0.155468	0.295660	8599.012695
8017.610363	0.083771	0.295660	8679.097656
8017.611283	0.083932	0.295660	8756.315430
8017.612147	0.083910	0.295660	8828.813477
8017.613101	0.083917	0.295660	8908.870117
8017.614041	0.083914	0.295660	8987.749023
8017.614955	0.083903	0.295660	9064.435547
8017.615817	0.083859	0.295660	9136.721680
8017.616785	0.083903	0.295660	9217.939453
8017.617705	0.083914	0.295660	9295.139648
8018.519037	0.908364	0.312917	441.465057
8018.519927	1.322307	0.312917	1618.318359
8018.520805	1.331895	0.312917	2787.721680
8018.521749	1.304132	0.312917	4018.822266
8018.522752	1.271942	0.312917	5294.580078
8018.523678	1.243213	0.312917	6445.794922
8018.524545	1.216743	0.312917	7500.711426
8018.525592	0.897074	0.312917	8439.948242
8018.526473	0.126332	0.312917	8551.246094
8018.527335	0.083840	0.312917	8623.516602
8018.528208	0.083899	0.312917	8696.760742
8018.529269	0.083903	0.312917	8785.781250
8018.530165	0.083965	0.312917	8861.013672
8018.531038	0.084064	0.312917	8934.401367
8018.532040	0.084012	0.312917	9018.582031
8018.532964	0.083859	0.312917	9096.067383
8018.533879	0.083979	0.312917	9172.908203
8018.534743	0.083932	0.312917	9245.425781
8019.668565	0.960542	0.301368	558.074890
8019.669495	1.330078	0.301368	1795.047607
8019.670402	1.327808	0.301368	2999.369141
8019.671281	1.300030	0.301368	4142.095703
8019.672315	1.267504	0.301368	5452.694336
8019.673216	1.239704	0.301368	6569.667969
8019.674098	1.213352	0.301368	7639.844727
8019.675072	0.831423	0.301368	8449.651367
8019.676031	0.105095	0.301368	8550.437500
8019.676947	0.083793	0.301368	8627.191406
8019.677814	0.083910	0.301368	8699.941406
8019.678851	0.083895	0.301368	8786.940430
8019.679734	0.083903	0.301368	8861.026367
8019.680608	0.083950	0.301368	8934.398437
8019.681508	0.083976	0.301368	9009.976562
8019.682541	0.083921	0.301368	9096.666992
8019.683421	0.083862	0.301368	9170.465820
8019.684296	0.083928	0.301368	9243.903320
8020.578815	0.904321	0.324257	444.021759
8020.579686	1.321465	0.324257	1595.017700
8020.580620	1.330441	0.324257	2837.649414
8020.581693	1.298031	0.324257	4230.436523
8020.582643	1.267950	0.324257	5434.989258
8020.583516	1.240657	0.324257	6518.082520
8020.584558	1.209683	0.324257	7778.571777
8020.585582	0.649321	0.324257	8443.476562
8020.586471	0.094113	0.324257	8527.142578
8020.587440	0.083884	0.324257	8608.426758
8020.588497	0.083987	0.324257	8697.201172
8020.589418	0.083888	0.324257	8774.461914
8020.590283	0.083910	0.324257	8847.043945
8020.591367	0.083983	0.324257	8938.082031
8020.592359	0.083870	0.324257	9021.280273
8020.593245	0.083947	0.324257	9095.657227
8020.594245	0.083914	0.324257	9179.570312
8020.595281	0.083881	0.324257	9266.470703
8021.734431	0.933970	0.297489	486.598206
8021.735448	1.331400	0.297489	1840.632080
8021.736344	1.327471	0.297489	3030.045898
8021.737310	1.297566	0.297489	4283.494629
8021.738366	1.263739	0.297489	5618.002930
8021.739293	1.235251	0.297489	6763.081055
8021.740161	1.208386	0.297489	7811.959961
8021.741254	0.563364	0.297489	8427.716797
8021.742256	0.087081	0.297489	8514.972656
8021.743144	0.083855	0.297489	8589.435547
8021.744143	0.083917	0.297489	8673.268555
8021.745193	0.084027	0.297489	8761.497070
8021.746089	0.083939	0.297489	8836.707031
8021.746947	0.083943	0.297489	8908.730469
8021.748032	0.084012	0.297489	8999.883789
8021.749011	0.083987	0.297489	9082.106445
8021.749891	0.083928	0.297489	9155.962891
8021.750890	0.084027	0.297489	9239.906250
8022.638525	0.852935	0.321111	363.350128
8022.639438	1.315474	0.321111	1564.377563
8022.640413	1.331016	0.321111	2862.117676
8022.641330	1.302462	0.321111	4056.475586
8022.642217	1.274381	0.321111	5186.851562
8022.643231	1.242686	0.321111	6446.934570
8022.644188	1.214088	0.321111	7608.816895
8022.645069	0.968460	0.321111	8462.029297
8022.646153	0.107611	0.321111	8578.679687
8022.647080	0.083840	0.321111	8656.399414
8022.648002	0.083881	0.321111	8733.737305
8022.648860	0.083884	0.321111	8805.709961
8022.649808	0.083884	0.321111	8885.232422
8022.650758	0.083910	0.321111	8964.947266
8022.651648	0.084023	0.321111	9039.728516
8022.652561	0.083910	0.321111	9116.337891
8022.653499	0.083906	0.321111	9195.041992
8022.654427	0.083987	0.321111	9272.981445
8023.799292	0.909163	0.281521	444.580475
8023.800227	1.324643	0.281521	1683.122070
8023.801159	1.329785	0.281521	2922.481934
8023.802023	1.302777	0.281521	4048.081299
8023.802978	1.272448	0.281521	5263.268555
8023.803942	1.242806	0.281521	6461.333984
8023.804839	1.215732	0.281521	7551.845703
8023.805754	0.983185	0.281521	8451.459961
8023.806690	0.136959	0.281521	8579.653320
8023.807621	0.083738	0.281521	8657.613281
8023.808509	0.083888	0.281521	8732.105469
8023.809441	0.083892	0.281521	8810.291992
8023.810392	0.083848	0.281521	8890.031250
8023.811267	0.083903	0.281521	8963.446289
8023.812193	0.083914	0.281521	9041.150391
8023.813122	0.083881	0.281521	9119.075195
8023.814059	0.083943	0.281521	9197.729492
8023.814933	0.083914	0.281521	9271.070312
8024.699836	0.854392	0.314186	364.825439
8024.700701	1.314686	0.314186	1502.029053
8024.701771	1.329382	0.314186	2924.468262
8024.702670	1.301829	0.314186	4094.812012
8024.703554	1.273480	0.314186	5220.568359
8024.704504	1.244546	0.314186	6402.886719
8024.705491	1.214564	0.314186	7601.661621
8024.706419	0.935072	0.314186	8469.408203
8024.707288	0.137933	0.314186	8589.272461
8024.708336	0.083837	0.314186	8677.132812
8024.709208	0.083925	0.314186	8750.315430
8024.710079	0.083976	0.314186	8823.458008
8024.710959	0.083965	0.314186	8897.346680
8024.712011	0.083851	0.314186	8985.558594
8024.712909	0.083862	0.314186	9060.867187
8024.713781	0.083950	0.314186	9134.071289
8024.714772	0.083958	0.314186	9217.273437
8024.715693	0.083877	0.314186	9294.524414
8025.861640	0.913290	0.265907	445.685425
8025.862521	1.321699	0.265907	1610.102417
8025.863389	1.332290	0.265907	2766.530273
8025.864336	1.304085	0.265907	4001.498291
8025.865322	1.272535	0.265907	5256.218262
8025.866243	1.244004	0.265907	6401.945801
8025.867126	1.217340	0.265907	7476.857422
8025.868162	0.920116	0.265907	8430.097656
8025.869064	0.126782	0.265907	8544.455078
8025.869936	0.083756	0.265907	8617.490234
8025.870798	0.083917	0.265907	8689.827148
8025.871842	0.083895	0.265907	8777.414062
8025.872718	0.083943	0.265907	8850.948242
8025.873584	0.083928	0.265907	8923.629883
8025.874592	0.083976	0.265907	9008.277344
8025.875511	0.083928	0.265907	9085.407227
8025.876415	0.083925	0.265907	9161.275391
8025.877292	0.083950	0.265907	9234.899414
8026.761696	0.886198	0.319564	408.537048
8026.762570	1.318861	0.319564	1561.221680
8026.763542	1.330338	0.319564	2854.310303
8026.764604	1.298273	0.319564	4233.076172
8026.765521	1.268855	0.319564	5396.616211
8026.766391	1.240931	0.319564	6476.226562
8026.767499	1.208621	0.319564	7815.378418
8026.768502	0.632952	0.319564	8450.228516
8026.769396	0.093113	0.319564	8533.471680
8026.770390	0.083928	0.319564	8616.896484
8026.771445	0.083884	0.319564	8705.394531
8026.772332	0.083914	0.319564	8779.826172
8026.773220	0.083947	0.319564	8854.371094
8026.774319	0.083943	0.319564	8946.624023
8026.775266	0.083815	0.319564	9025.996094
8026.776130	0.083910	0.319564	9098.494141
8026.777163	0.083990	0.319564	9185.255859
8026.778187	0.083866	0.319564	9271.134766
8027.923492	0.931901	0.268380	493.907318
8027.924558	1.332418	0.268380	1914.265137
8027.925471	1.325325	0.268380	3124.286621
8027.926338	1.296812	0.268380	4248.622070
8027.927460	1.262307	0.268380	5664.930664
8027.928434	1.232725	0.268380	6865.604492
8027.929305	1.206456	0.268380	7916.427734
8027.930355	0.512252	0.268380	8454.292969
8027.931402	0.085759	0.268380	8544.083008
8027.932296	0.083815	0.268380	8619.013672
8027.933220	0.083910	0.268380	8696.546875
8027.934278	0.083829	0.268380	8785.238281
8027.935211	0.083844	0.268380	8863.464844
8027.936074	0.083899	0.268380	8935.869141
8027.937123	0.083881	0.268380	9023.860352
8027.938132	0.083811	0.268380	9108.425781
8027.939011	0.083855	0.268380	9182.134766
8027.939979	0.083932	0.268380	9263.380859
8028.825528	0.850723	0.324132	358.154205
8028.826506	1.321351	0.324132	1650.435791
8028.827442	1.330265	0.324132	2895.563721
8028.828322	1.303272	0.324132	4042.442627
8028.829218	1.274615	0.324132	5184.498047
8028.830168	1.244670	0.324132	6366.935059
8028.831131	1.216194	0.324132	7538.129883
8028.832007	1.027456	0.324132	8438.181641
8028.832997	0.155559	0.324132	8592.185547
8028.834048	0.083855	0.324132	8680.317383
8028.835012	0.083925	0.324132	8761.220703
8028.835879	0.083939	0.324132	8833.996094
8028.836920	0.083910	0.324132	8921.346680
8028.837958	0.083958	0.324132	9008.494141
8028.838847	0.083859	0.324132	9083.044922
8028.839766	0.083906	0.324132	9160.154297
8028.840834	0.083906	0.324132	9249.766602
8028.841779	0.083870	0.324132	9329.023437
8029.982694	0.869967	0.278560	405.404633
8029.983593	1.320513	0.278560	1592.545654
8029.984470	1.332173	0.278560	2760.861328
8029.985387	1.305784	0.278560	3958.264893
8029.986345	1.274843	0.278560	5179.563965
8029.987280	1.245260	0.278560	6343.881836
8029.988158	1.218724	0.278560	7413.921875
8029.989074	1.031579	0.278560	8358.848633
8029.990042	0.163854	0.278560	8517.458984
8029.990969	0.083815	0.278560	8595.155273
8029.991840	0.083859	0.278560	8668.196289
8029.992813	0.083928	0.278560	8749.858398
8029.993745	0.083851	0.278560	8828.007812
8029.994654	0.083914	0.278560	8904.285156
8029.995515	0.083906	0.278560	8976.528320
8029.996482	0.083939	0.278560	9057.697266
8029.997433	0.083899	0.278560	9137.485352
8029.998305	0.083965	0.278560	9210.703125
8030.887359	0.852631	0.327307	364.925903
8030.888326	1.320722	0.327307	1642.063599
8030.889273	1.329679	0.327307	2901.269531
8030.890185	1.301693	0.327307	4088.413574
8030.891068	1.272924	0.327307	5212.405273
8030.892037	1.243535	0.327307	6417.390625
8030.892990	1.215091	0.327307	7575.373047
8030.893885	0.986356	0.327307	8458.162109
8030.894807	0.151461	0.327307	8597.809570
8030.895734	0.083705	0.327307	8675.404297
8030.896662	0.083866	0.327307	8753.231445
8030.897522	0.083892	0.327307	8825.377930
8030.898488	0.083829	0.327307	8906.357422
8030.899444	0.083903	0.327307	8986.568359
8030.900312	0.083903	0.327307	9059.395508
8030.901226	0.083939	0.327307	9136.116211
8030.902182	0.083848	0.327307	9216.274414
8030.903104	0.083899	0.327307	9293.628906
8032.043959	0.862441	0.276223	363.087799
8032.044932	1.323292	0.276223	1650.651123
8032.045865	1.330283	0.276223	2891.805420
8032.046750	1.303553	0.276223	4045.450195
8032.047710	1.273484	0.276223	5267.994629
8032.048672	1.243528	0.276223	6464.268555
8032.049594	1.215450	0.276223	7584.914062
8032.050462	1.009958	0.276223	8461.557617
8032.051396	0.145463	0.276223	8597.419922
8032.052342	0.083709	0.276223	8676.608398
8032.053265	0.083925	0.276223	8754.070312
8032.054134	0.083866	0.276223	8826.950195
8032.055114	0.083928	0.276223	8909.200195
8032.056073	0.083903	0.276223	8989.663086
8032.056967	0.083972	0.276223	9064.734375
8032.057854	0.083928	0.276223	9139.178711
8032.058796	0.083873	0.276223	9218.187500
8032.059733	0.083895	0.276223	9296.796875
8032.950815	0.919014	0.329816	468.696991
8032.951691	1.323278	0.329816	1627.888184
8032.952551	1.331803	0.329816	2773.238770
8032.953611	1.300199	0.329816	4151.449707
8032.954578	1.269067	0.329816	5378.637695
8032.955458	1.241675	0.329816	6471.311523
8032.956335	1.214249	0.329816	7536.208008
8032.957470	0.760624	0.329816	8399.515625
8032.958363	0.101733	0.329816	8490.363281
8032.959228	0.083848	0.329816	8562.891602
8032.960275	0.084009	0.329816	8650.848633
8032.961254	0.083947	0.329816	8733.032227
8032.962129	0.083987	0.329816	8806.520508
8032.962987	0.083954	0.329816	8878.552734
8032.964096	0.084005	0.329816	8971.714844
8032.964983	0.083961	0.329816	9046.188477
8032.965843	0.083994	0.329816	9118.423828
8032.966938	0.084038	0.329816	9210.445312
8034.103844	0.926111	0.285456	477.873199
8034.104749	1.325922	0.285456	1677.832153
8034.105622	1.330799	0.285456	2839.620117
8034.106616	1.301118	0.285456	4132.931641
8034.107633	1.268152	0.285456	5422.642090
8034.108522	1.240726	0.285456	6525.647461
8034.109388	1.214176	0.285456	7577.124023
8034.110473	0.768816	0.285456	8411.289062
8034.111398	0.100616	0.285456	8504.359375
8034.112275	0.083789	0.285456	8577.842773
8034.113247	0.083910	0.285456	8659.403320
8034.114249	0.083877	0.285456	8743.448242
8034.115131	0.083965	0.285456	8817.504883
8034.115993	0.083958	0.285456	8889.875977
8034.117081	0.083939	0.285456	8981.202148
8034.117999	0.083866	0.285456	9058.191406
8034.118871	0.083925	0.285456	9131.374023
8034.119827	0.084001	0.285456	9211.679687
8035.013066	0.869919	0.330118	375.805176
8035.013982	1.319469	0.330118	1584.438721
8035.014848	1.332012	0.330118	2737.960937
8035.015828	1.303627	0.330118	4015.515137
8035.016786	1.273044	0.330118	5235.091797
8035.017684	1.245059	0.330118	6353.154297
8035.018603	1.217769	0.330118	7472.283691
8035.019547	1.004733	0.330118	8420.750977
8035.020479	0.145964	0.330118	8556.790039
8035.021368	0.083888	0.330118	8631.366211
8035.022304	0.083873	0.330118	8709.872070
8035.023253	0.083873	0.330118	8789.467773
8035.024167	0.083936	0.330118	8866.184570
8035.025023	0.083848	0.330118	8937.958008
8035.026090	0.083987	0.330118	9027.572266
8035.027145	0.083976	0.330118	9116.166992
8035.028032	0.083895	0.330118	9190.582031
8035.028896	0.083954	0.330118	9263.118164
8036.167626	0.854293	0.276731	372.471832
8036.168494	1.315162	0.276731	1514.032837
8036.169528	1.329781	0.276731	2889.026855
8036.170566	1.298705	0.276731	4237.082520
8036.171449	1.269855	0.276731	5358.364258
8036.172382	1.241144	0.276731	6516.351562
8036.173445	1.209382	0.276731	7801.924805
8036.174388	0.731107	0.276731	8491.359375
8036.175250	0.102239	0.276731	8579.489258
8036.176304	0.083848	0.276731	8667.864258
8036.177318	0.083906	0.276731	8752.945312
8036.178191	0.083979	0.276731	8826.259766
8036.179139	0.084038	0.276731	8905.927734
8036.180191	0.083950	0.276731	8994.243164
8036.181118	0.083958	0.276731	9072.072266
8036.181985	0.083936	0.276731	9144.844727
8036.183048	0.084023	0.276731	9234.162109
8036.184058	0.083936	0.276731	9318.937500
8037.074947	0.883949	0.335673	428.715271
8037.075871	1.324200	0.335673	1652.276367
8037.076760	1.330679	0.335673	2835.249756
8037.077671	1.303586	0.335673	4022.816895
8037.078611	1.272601	0.335673	5219.062012
8037.079573	1.243334	0.335673	6415.148926
8037.080470	1.216000	0.335673	7505.900391
8037.081415	0.960637	0.335673	8413.702148
8037.082386	0.133942	0.335673	8543.759766
8037.083257	0.083800	0.335673	8616.750000
8037.084167	0.083925	0.335673	8693.121094
8037.085102	0.083972	0.335673	8771.634766
8037.086044	0.083892	0.335673	8850.661133
8037.086937	0.083943	0.335673	8925.622070
8037.087846	0.083917	0.335673	9001.903320
8037.088809	0.083862	0.335673	9082.663086
8037.089737	0.083954	0.335673	9160.572266
8037.090599	0.083925	0.335673	9232.915039
8038.227381	0.858750	0.284558	361.533783
8038.228357	1.321714	0.284558	1651.526489
8038.229276	1.330192	0.284558	2873.972656
8038.230167	1.303586	0.284558	4035.468262
8038.231084	1.274268	0.284558	5203.971680
8038.232051	1.244429	0.284558	6407.333984
8038.232978	1.216421	0.284558	7534.956055
8038.233854	1.037556	0.284558	8443.855469
8038.234813	0.149410	0.284558	8587.139648
8038.235746	0.083811	0.284558	8665.334961
8038.236679	0.083925	0.284558	8743.636719
8038.237538	0.083903	0.284558	8815.708984
8038.238506	0.083910	0.284558	8896.933594
8038.239419	0.083895	0.284558	8973.530273
8038.240298	0.083888	0.284558	9047.267578
8038.241255	0.083877	0.284558	9127.538086
8038.242181	0.083851	0.284558	9205.184570
8038.243091	0.083947	0.284558	9281.576172
8039.136187	0.851796	0.336173	362.013153
8039.137138	1.320615	0.336173	1617.918335
8039.138070	1.330206	0.336173	2857.670410
8039.138998	1.302466	0.336173	4066.358643
8039.139869	1.273733	0.336173	5175.780273
8039.140873	1.243660	0.336173	6424.414551
8039.141799	1.215732	0.336173	7550.182617
8039.142667	1.021736	0.336173	8437.049805
8039.143712	0.129851	0.336173	8572.744141
8039.144588	0.083760	0.336173	8646.118164
8039.145490	0.083925	0.336173	8721.818359
8039.146369	0.083947	0.336173	8795.607422
8039.147340	0.083939	0.336173	8877.112305
8039.148270	0.083870	0.336173	8955.111328
8039.149152	0.083925	0.336173	9029.132812
8039.150032	0.083837	0.336173	9102.909180
8039.151017	0.083833	0.336173	9185.484375
8039.151944	0.083884	0.336173	9263.245117
8040.290761	0.860449	0.279341	375.155884
8040.291644	1.316239	0.279341	1537.394897
8040.292509	1.333272	0.279341	2690.674805
8040.293491	1.305586	0.279341	3972.760254
8040.294391	1.275846	0.279341	5121.021484
8040.295271	1.248292	0.279341	6219.518555
8040.296182	1.220515	0.279341	7331.407715
8040.297185	1.067443	0.279341	8402.052734
8040.298105	0.168838	0.279341	8557.383789
8040.298989	0.083976	0.279341	8631.618164
8040.300003	0.083961	0.279341	8716.754883
8040.300913	0.083888	0.279341	8793.092773
8040.301828	0.083987	0.279341	8869.940430
8040.302688	0.083961	0.279341	8942.147461
8040.303732	0.083987	0.279341	9029.830078
8040.304610	0.083910	0.279341	9103.502930
8040.305520	0.083939	0.279341	9179.887695
8040.306397	0.083921	0.279341	9253.486328
8041.197019	0.886088	0.343895	397.853363
8041.197903	1.318502	0.343895	1563.409302
8041.198763	1.331851	0.343895	2708.800781
8041.199877	1.300620	0.343895	4157.691406
8041.200771	1.271093	0.343895	5294.047852
8041.201646	1.243949	0.343895	6382.502930
8041.202650	1.214176	0.343895	7601.535645
8041.203654	0.843754	0.343895	8448.664062
8041.204538	0.114009	0.343895	8549.448242
8041.205397	0.083767	0.343895	8621.404297
8041.206500	0.083888	0.343895	8713.932617
8041.207420	0.083862	0.343895	8791.085937
8041.208301	0.083903	0.343895	8865.003906
8041.209304	0.083848	0.343895	8949.103516
8041.210287	0.083873	0.343895	9031.550781
8041.211163	0.083950	0.343895	9105.090820
8041.212024	0.083947	0.343895	9177.369141
8041.213108	0.083884	0.343895	9268.299805
8042.352724	0.973510	0.281073	541.271301
8042.353688	1.331305	0.281073	1824.649170
8042.354569	1.328115	0.281073	2994.718750
8042.355466	1.299543	0.281073	4160.409180
8042.356569	1.265658	0.281073	5556.429687
8042.357462	1.237826	0.281073	6661.808105
8042.358329	1.211616	0.281073	7712.279297
8042.359387	0.692219	0.281073	8444.647461
8042.360353	0.092834	0.281073	8534.325195
8042.361225	0.083877	0.281073	8607.465820
8042.362111	0.083870	0.281073	8681.774414
8042.363204	0.083884	0.281073	8773.459961
8042.364084	0.083921	0.281073	8847.310547
8042.364939	0.083939	0.281073	8919.078125
8042.365987	0.083983	0.281073	9007.092773
8042.366966	0.083906	0.281073	9089.237305
8042.367847	0.083954	0.281073	9163.200195
8042.368708	0.083899	0.281073	9235.437500
8043.255834	0.928085	0.348141	479.819794
8043.256827	1.330309	0.348141	1800.816406
8043.257722	1.328053	0.348141	2989.423828
8043.258726	1.296892	0.348141	4291.503418
8043.259785	1.263757	0.348141	5629.822266
8043.260676	1.235552	0.348141	6730.698730
8043.261560	1.208324	0.348141	7798.856934
8043.262660	0.565364	0.348141	8420.756836
8043.263611	0.088275	0.348141	8504.706055
8043.264471	0.083826	0.348141	8576.795898
8043.265506	0.083958	0.348141	8663.692383
8043.266546	0.083925	0.348141	8750.973633
8043.267423	0.083976	0.348141	8824.620117
8043.268357	0.083932	0.348141	8903.012695
8043.269419	0.084016	0.348141	8992.238281
8043.270356	0.083987	0.348141	9070.933594
8043.271214	0.083943	0.348141	9142.957031
8043.272241	0.084005	0.348141	9229.230469
8044.416509	0.908093	0.274278	438.609009
8044.417384	1.321088	0.274278	1594.560669
8044.418341	1.330419	0.274278	2867.771484
8044.419404	1.298101	0.274278	4247.652344
8044.420316	1.268485	0.274278	5404.510742
8044.421189	1.241151	0.274278	6488.035645
8044.422245	1.209708	0.274278	7765.487305
8044.423265	0.662692	0.274278	8441.432617
8044.424157	0.094973	0.274278	8526.148437
8044.425129	0.083859	0.274278	8607.659180
8044.426185	0.083958	0.274278	8696.318359
8044.427099	0.083939	0.274278	8773.039062
8044.427962	0.083822	0.274278	8845.377930
8044.429077	0.083969	0.274278	8939.002930
8044.430043	0.083888	0.274278	9020.039062
8044.430926	0.083921	0.274278	9094.141602
8044.431930	0.083958	0.274278	9178.434570
8044.432979	0.083906	0.274278	9266.452148
8045.316028	0.846387	0.350900	357.175201
8045.316929	1.314276	0.350900	1541.337891
8045.317868	1.330986	0.350900	2791.134277
8045.318839	1.302543	0.350900	4055.903320
8045.319739	1.273678	0.350900	5202.213379
8045.320668	1.244648	0.350900	6358.491699
8045.321638	1.215721	0.350900	7537.741699
8045.322562	0.983042	0.350900	8446.072266
8045.323424	0.153981	0.350900	8578.803711
8045.324379	0.083727	0.350900	8658.762695
8045.325312	0.083947	0.350900	8737.084961
8045.326230	0.083921	0.350900	8814.124023
8045.327093	0.083932	0.350900	8886.557617
8045.328061	0.083881	0.350900	8967.753906
8045.328984	0.084001	0.350900	9045.287109
8045.329847	0.083958	0.350900	9117.742187
8045.330812	0.083936	0.350900	9198.740234
8045.331766	0.083914	0.350900	9278.793945
8046.484460	0.873094	0.270282	405.988953
8046.485352	1.320729	0.270282	1584.078857
8046.486221	1.332367	0.270282	2741.905762
8046.487187	1.303773	0.270282	4001.350586
8046.488140	1.272872	0.270282	5214.397949
8046.489073	1.244385	0.270282	6375.409180
8046.489940	1.217567	0.270282	7431.040039
8046.490914	0.994570	0.270282	8399.751953
8046.491883	0.145437	0.270282	8540.680664
8046.492754	0.083811	0.270282	8613.679687
8046.493665	0.083855	0.270282	8690.071289
8046.494606	0.083899	0.270282	8769.020508
8046.495537	0.083932	0.270282	8847.161133
8046.496425	0.083965	0.270282	8921.721680
8046.497331	0.083917	0.270282	8997.750977
8046.498286	0.083866	0.270282	9077.842773
8046.499208	0.083983	0.270282	9155.275391
8046.500071	0.083884	0.270282	9227.667969
8047.378365	0.851411	0.362816	361.849731
8047.379310	1.315979	0.362816	1605.449829
8047.380257	1.329840	0.362816	2864.808350
8047.381180	1.302059	0.362816	4066.609131
8047.382059	1.273975	0.362816	5186.432617
8047.382996	1.244817	0.362816	6352.826172
8047.383957	1.216058	0.362816	7521.458008
8047.384889	0.989421	0.362816	8443.598633
8047.385753	0.155834	0.362816	8578.239258
8047.386706	0.083774	0.362816	8658.076172
8047.387660	0.083822	0.362816	8738.041992
8047.388544	0.084005	0.362816	8812.302734
8047.389430	0.083829	0.362816	8886.575195
8047.390386	0.083818	0.362816	8966.705078
8047.391318	0.083914	0.362816	9044.912109
8047.392181	0.083844	0.362816	9117.269531
8047.393223	0.083884	0.362816	9204.676758
8047.394146	0.083829	0.362816	9282.050781
8048.548792	0.858977	0.269287	365.065247
8048.549761	1.323065	0.269287	1647.115479
8048.550693	1.330320	0.269287	2886.973633
8048.551587	1.303125	0.269287	4051.967285
8048.552502	1.274000	0.269287	5217.677734
8048.553456	1.244033	0.269287	6404.485352
8048.554406	1.215538	0.269287	7559.247070
8048.555303	1.000291	0.269287	8456.507812
8048.556243	0.151725	0.269287	8599.128906
8048.557192	0.083822	0.269287	8678.675781
8048.558115	0.083815	0.269287	8756.037109
8048.558973	0.083961	0.269287	8828.076172
8048.559935	0.083914	0.269287	8908.800781
8048.560884	0.083859	0.269287	8988.382812
8048.561777	0.083705	0.269287	9063.130859
8048.562840	0.083727	0.269287	9152.132812
8048.563783	0.083906	0.269287	9231.256836
8048.564707	0.083888	0.269287	9308.769531
8049.438735	0.916608	0.368150	456.470612
8049.439686	1.324409	0.368150	1715.983643
8049.440563	1.326892	0.368150	2879.667969
8049.441490	1.298159	0.368150	4083.061523
8049.442549	1.264076	0.368150	5421.717773
8049.443431	1.237288	0.368150	6513.005371
8049.444303	1.211122	0.368150	7569.103516
8049.445221	0.888007	0.368150	8384.293945
8049.446253	0.111475	0.368150	8499.335937
8049.447144	0.083624	0.368150	8573.844727
8049.448020	0.083752	0.368150	8647.211914
8049.449123	0.083690	0.368150	8739.522461
8049.450027	0.083730	0.368150	8815.214844
8049.450899	0.083738	0.368150	8888.234375
8049.451755	0.083716	0.368150	8959.895508
8049.452821	0.083694	0.368150	9049.113281
8049.453711	0.083760	0.368150	9123.659180
8049.454588	0.083719	0.368150	9197.081055
8050.614197	0.845310	0.264900	355.875519
8050.615217	1.323776	0.264900	1706.126709
8050.616194	1.327947	0.264900	3003.530762
8050.617109	1.299412	0.264900	4192.492187
8050.617994	1.271158	0.264900	5317.467285
8050.619041	1.239459	0.264900	6615.181152
8050.619946	1.211704	0.264900	7711.773437
8050.620827	0.892229	0.264900	8497.827148
8050.621716	0.126302	0.264900	8610.110352
8050.622753	0.083793	0.264900	8697.002930
8050.623637	0.083888	0.264900	8771.160156
8050.624505	0.083851	0.264900	8843.943359
8050.625507	0.083939	0.264900	8928.050781
8050.626406	0.083818	0.264900	9003.403320
8050.627324	0.083950	0.264900	9080.469727
8050.628201	0.083895	0.264900	9154.045898
8050.629219	0.083870	0.264900	9239.424805
8050.630100	0.083892	0.264900	9313.333008
8051.501601	0.931498	0.371683	478.789886
8051.502612	1.330518	0.371683	1823.943115
8051.503490	1.327778	0.371683	2989.732422
8051.504485	1.297116	0.371683	4280.362305
8051.505537	1.263614	0.371683	5609.684570
8051.506440	1.235614	0.371683	6725.444336
8051.507313	1.208276	0.371683	7780.269531
8051.508424	0.556428	0.371683	8398.460937
8051.509394	0.087825	0.371683	8483.651367
8051.510261	0.083888	0.371683	8556.381836
8051.511314	0.084016	0.371683	8644.850586
8051.512351	0.083928	0.371683	8731.883789
8051.513237	0.083899	0.371683	8806.217773
8051.514166	0.083987	0.371683	8884.241211
8051.515232	0.083969	0.371683	8973.751953
8051.516182	0.083943	0.371683	9053.498047
8051.517046	0.084016	0.371683	9126.087891
8051.518082	0.084016	0.371683	9213.128906
8052.680675	0.878969	0.263615	407.841400
8052.681762	1.330085	0.263615	1853.644287
8052.682712	1.325431	0.263615	3112.803711
8052.683589	1.297738	0.263615	4250.919922
8052.684638	1.264567	0.263615	5577.450195
8052.685666	1.232893	0.263615	6844.864258
8052.686559	1.206152	0.263615	7921.958008
8052.687522	0.619515	0.263615	8518.551758
8052.688570	0.087660	0.263615	8610.418945
8052.689492	0.083870	0.263615	8687.747070
8052.690356	0.083881	0.263615	8760.219727
8052.691420	0.083943	0.263615	8849.535156
8052.692420	0.083888	0.263615	8933.422852
8052.693310	0.083855	0.263615	9008.053711
8052.694292	0.083987	0.263615	9090.528320
8052.695335	0.083892	0.263615	9178.027344
8052.696249	0.083881	0.263615	9254.694336
8052.697106	0.083873	0.263615	9326.574219
8053.564866	0.864379	0.382406	369.089661
8053.565743	1.315789	0.382406	1523.036377
8053.566661	1.331697	0.382406	2745.533936
8053.567622	1.303682	0.382406	3998.372070
8053.568546	1.274304	0.382406	5175.829102
8053.569416	1.246626	0.382406	6260.393555
8053.570389	1.217853	0.382406	7445.364258
8053.571353	1.015796	0.382406	8424.591797
8053.572248	0.160100	0.382406	8567.881836
8053.573162	0.083789	0.382406	8644.464844
8053.574111	0.083756	0.382406	8723.949219
8053.575050	0.083815	0.382406	8802.651367
8053.575923	0.083873	0.382406	8875.873047
8053.576837	0.083840	0.382406	8952.502930
8053.577799	0.083877	0.382406	9033.192383
8053.578724	0.083884	0.382406	9110.785156
8053.579603	0.083910	0.382406	9184.541992
8053.580577	0.083870	0.382406	9266.231445
8054.744531	0.875295	0.263425	385.129974
8054.745444	1.319963	0.263425	1590.256470
8054.746309	1.331927	0.263425	2742.373535
8054.747288	1.303733	0.263425	4018.728027
8054.748206	1.273876	0.263425	5188.145996
8054.749093	1.246124	0.263425	6293.458008
8054.750047	1.217498	0.263425	7454.950684
8054.751003	1.009563	0.263425	8420.092773
8054.751898	0.156398	0.263425	8560.068359
8054.752815	0.083811	0.263425	8636.922852
8054.753750	0.083906	0.263425	8715.375000
8054.754700	0.083815	0.263425	8794.999023
8054.755585	0.083851	0.263425	8869.207031
8054.756516	0.083855	0.263425	8947.276367
8054.757464	0.083877	0.263425	9026.791992
8054.758379	0.083936	0.263425	9103.592773
8054.759242	0.083914	0.263425	9176.009766
8054.760174	0.083877	0.263425	9254.182617
8055.631291	0.849935	0.379707	360.372559
8055.632298	1.324567	0.379707	1694.211182
8055.633192	1.329591	0.379707	2882.865723
8055.634105	1.301872	0.379707	4071.475342
8055.634990	1.273000	0.379707	5198.081055
8055.635969	1.243136	0.379707	6415.111328
8055.636929	1.214777	0.379707	7581.296875
8055.637825	0.978699	0.379707	8458.210937
8055.638744	0.148792	0.379707	8594.950195
8055.639683	0.083690	0.379707	8673.535156
8055.640623	0.083818	0.379707	8752.324219
8055.641507	0.083881	0.379707	8826.474609
8055.642442	0.083954	0.379707	8904.971680
8055.643401	0.083936	0.379707	8985.465820
8055.644278	0.083972	0.379707	9059.109375
8055.645208	0.083870	0.379707	9137.108398
8055.646136	0.083840	0.379707	9214.912109
8055.647070	0.083870	0.379707	9293.246094
8056.806337	0.860471	0.268167	369.142151
8056.807208	1.315444	0.268167	1514.894287
8056.808071	1.332612	0.268167	2664.938721
8056.809093	1.304000	0.268167	3997.626953
8056.810022	1.274506	0.268167	5181.642578
8056.810901	1.247054	0.268167	6277.803711
8056.811853	1.218992	0.268167	7438.283691
8056.812803	1.036117	0.268167	8422.594727
8056.813732	0.162261	0.268167	8573.334961
8056.814596	0.083892	0.268167	8645.817383
8056.815512	0.083899	0.268167	8722.668945
8056.816457	0.083906	0.268167	8801.959961
8056.817381	0.083954	0.268167	8879.533203
8056.818260	0.083877	0.268167	8953.260742
8056.819228	0.083888	0.268167	9034.463867
8056.820185	0.083979	0.268167	9114.832031
8056.821070	0.083914	0.268167	9189.095703
8056.821962	0.083859	0.268167	9263.897461
8057.694260	0.937500	0.380762	513.750000
8057.695276	1.332114	0.380762	1867.178223
8057.696169	1.326581	0.380762	3051.814941
8057.697035	1.298756	0.380762	4176.537598
8057.698130	1.264830	0.380762	5561.526855
8057.699058	1.236050	0.380762	6708.581055
8057.699934	1.209961	0.380762	7768.506836
8057.700962	0.678234	0.380762	8465.731445
8057.701962	0.090326	0.380762	8556.057617
8057.702846	0.083888	0.380762	8630.214844
8057.703701	0.083877	0.380762	8701.929687
8057.704769	0.083990	0.380762	8791.631836
8057.705675	0.083873	0.380762	8867.621094
8057.706548	0.083899	0.380762	8940.865234
8057.707509	0.083947	0.380762	9021.538086
8057.708527	0.083884	0.380762	9106.932617
8057.709418	0.083910	0.380762	9181.696289
8057.710280	0.083906	0.380762	9254.023437
8058.868683	0.858270	0.263929	375.922363
8058.869548	1.315408	0.263929	1513.750122
8058.870574	1.329818	0.263929	2878.143555
8058.871624	1.298203	0.263929	4241.256836
8058.872517	1.269225	0.263929	5374.674805
8058.873431	1.240796	0.263929	6508.762207
8058.874519	1.208350	0.263929	7823.446289
8058.875475	0.689476	0.263929	8482.585937
8058.876334	0.098544	0.263929	8567.235352
8058.877410	0.083884	0.263929	8657.495117
8058.878419	0.083851	0.263929	8742.101562
8058.879306	0.083884	0.263929	8816.506836
8058.880279	0.083950	0.263929	8898.190430
8058.881314	0.083903	0.263929	8985.029297
8058.882232	0.083811	0.263929	9061.967773
8058.883091	0.083903	0.263929	9134.040039
8058.884158	0.083969	0.263929	9223.634766
8058.885157	0.083851	0.263929	9307.402344
8059.759590	0.877797	0.374623	410.808838
8059.760513	1.322648	0.374623	1631.612671
8059.761388	1.331184	0.374623	2796.398926
8059.762310	1.304484	0.374623	3999.132812
8059.763279	1.273480	0.374623	5233.135254
8059.764216	1.244022	0.374623	6398.784180
8059.765091	1.217435	0.374623	7464.040039
8059.766010	0.993882	0.374623	8377.417969
8059.766975	0.147502	0.374623	8519.757812
8059.767900	0.083778	0.374623	8597.252930
8059.768777	0.083888	0.374623	8670.822266
8059.769746	0.083892	0.374623	8752.113281
8059.770695	0.083917	0.374623	8831.750977
8059.771581	0.083921	0.374623	8906.104492
8059.772453	0.083903	0.374623	8979.267578
8059.773407	0.083958	0.374623	9059.363281
8059.774338	0.083925	0.374623	9137.497070
8059.775200	0.083888	0.374623	9209.808594
8060.930019	0.907196	0.264142	421.846161
8060.930949	1.323530	0.264142	1652.729248
8060.931820	1.331005	0.264142	2812.034180
8060.932796	1.302246	0.264142	4083.026367
8060.933750	1.271913	0.264142	5296.431152
8060.934641	1.244176	0.264142	6404.992187
8060.935560	1.216659	0.264142	7523.101562
8060.936521	0.971041	0.264142	8456.272461
8060.937420	0.144364	0.264142	8586.055664
8060.938326	0.083782	0.264142	8661.961914
8060.939251	0.083888	0.264142	8739.558594
8060.940201	0.083888	0.264142	8819.251953
8060.941085	0.083932	0.264142	8893.447266
8060.941998	0.083903	0.264142	8970.050781
8060.942970	0.083943	0.264142	9051.643555
8060.943894	0.083796	0.264142	9129.071289
8060.944757	0.083888	0.264142	9201.466797
8060.945747	0.083958	0.264142	9284.584961
8061.823927	0.871187	0.361318	367.640717
8061.824995	1.329276	0.361318	1787.307617
8061.825900	1.328071	0.361318	2989.211914
8061.826781	1.300946	0.361318	4135.345215
8061.827775	1.269921	0.361318	5397.646484
8061.828702	1.240349	0.361318	6547.450195
8061.829630	1.212770	0.361318	7672.900391
8061.830501	0.895803	0.361318	8453.144531
8061.831550	0.107329	0.361318	8565.732422
8061.832429	0.083738	0.361318	8639.337891
8061.833293	0.083925	0.361318	8711.848633
8061.834280	0.083910	0.361318	8794.667969
8061.835220	0.083910	0.361318	8873.542969
8061.836126	0.083972	0.361318	8949.622070
8061.837010	0.083939	0.361318	9023.824219
8061.838049	0.083947	0.361318	9111.044922
8061.838943	0.083917	0.361318	9186.067383
8061.839863	0.083994	0.361318	9263.341797
8062.992351	0.886091	0.261576	408.488098
8062.993240	1.319883	0.261576	1581.863770
8062.994208	1.330283	0.261576	2869.578125
8062.995157	1.301257	0.261576	4104.471191
8062.996080	1.272085	0.261576	5278.605469
8062.996943	1.244502	0.261576	6352.610352
8062.997986	1.214030	0.261576	7618.843262
8062.998875	0.952423	0.261576	8465.546875
8062.999752	0.142449	0.261576	8590.474609
8063.000741	0.083899	0.261576	8673.450195
8063.001699	0.083873	0.261576	8753.800781
8063.002613	0.083917	0.261576	8830.500977
8063.003476	0.083987	0.261576	8902.981445
8063.004505	0.083987	0.261576	8989.404297
8063.005402	0.083990	0.261576	9064.744141
8063.006308	0.083932	0.261576	9140.786133
8063.007188	0.083932	0.261576	9214.646484
8063.008164	0.083870	0.261576	9296.502930
8063.887368	0.911733	0.367940	455.866669
8063.888297	1.325739	0.367940	1687.477783
8063.889159	1.330371	0.367940	2834.257812
8063.890219	1.298448	0.367940	4210.613281
8063.891238	1.266101	0.367940	5500.770508
8063.892128	1.238459	0.367940	6602.999512
8063.892990	1.212125	0.367940	7647.851562
8063.894060	0.727401	0.367940	8426.170898
8063.894984	0.097028	0.367940	8515.824219
8063.895857	0.083866	0.367940	8589.039062
8063.896831	0.083921	0.367940	8670.778320
8063.897849	0.083884	0.367940	8756.172852
8063.898723	0.083884	0.367940	8829.487305
8063.899589	0.083873	0.367940	8902.121094
8063.900628	0.083921	0.367940	8989.314453
8063.901575	0.083870	0.367940	9068.739258
8063.902451	0.083950	0.367940	9142.279297
8063.903369	0.083983	0.367940	9219.375977
8065.053129	0.867704	0.266483	382.657410
8065.054229	1.328884	0.266483	1844.430176
8065.055123	1.327434	0.266483	3031.156250
8065.055992	1.300305	0.266483	4161.121582
8065.057052	1.266650	0.266483	5503.770996
8065.058023	1.236705	0.266483	6704.611816
8065.058893	1.210239	0.266483	7757.520020
8065.059767	0.799684	0.266483	8456.443359
8065.060884	0.094314	0.266483	8561.791992
8065.061787	0.083815	0.266483	8637.476562
8065.062654	0.083826	0.266483	8710.153320
8065.063722	0.084027	0.266483	8799.894531
8065.064692	0.083829	0.266483	8881.208984
8065.065568	0.083950	0.266483	8954.749023
8065.066428	0.083914	0.266483	9026.915039
8065.067545	0.083928	0.266483	9120.663086
8065.068442	0.083936	0.266483	9195.953125
8065.069317	0.083906	0.266483	9269.371094
8065.950240	0.928674	0.366550	475.481232
8065.951248	1.330598	0.366550	1816.724121
8065.952125	1.328060	0.366550	2981.433105
8065.953142	1.297119	0.366550	4300.603516
8065.954191	1.263827	0.366550	5626.357910
8065.955067	1.235742	0.366550	6708.868164
8065.955958	1.208339	0.366550	7785.498047
8065.957065	0.563448	0.366550	8409.235352
8065.958015	0.088275	0.366550	8493.096680
8065.958886	0.083851	0.366550	8566.130859
8065.959905	0.083914	0.366550	8651.638672
8065.960944	0.083888	0.366550	8738.797852
8065.961836	0.083943	0.366550	8813.674805
8065.962770	0.083961	0.366550	8892.094727
8065.963835	0.083921	0.366550	8981.470703
8065.964778	0.083928	0.366550	9060.615234
8065.965646	0.083917	0.366550	9133.455078
8065.966698	0.083983	0.366550	9221.805664
8067.117082	0.928315	0.263925	474.369202
8067.118006	1.326819	0.263925	1700.349854
8067.118878	1.329987	0.263925	2860.098145
8067.119935	1.297863	0.263925	4231.938965
8067.120951	1.265607	0.263925	5517.795410
8067.121846	1.238060	0.263925	6625.859375
8067.122818	1.209221	0.263925	7801.222656
8067.123881	0.596550	0.263925	8435.355469
8067.124796	0.090157	0.263925	8517.849609
8067.125660	0.083873	0.263925	8590.316406
8067.126750	0.083972	0.263925	8681.845703
8067.127742	0.083811	0.263925	8764.986328
8067.128637	0.083928	0.263925	8840.102539
8067.129633	0.083906	0.263925	8923.672852
8067.130673	0.083965	0.263925	9010.996094
8067.131570	0.083851	0.263925	9086.210937
8067.132426	0.083888	0.263925	9158.018555
8067.133517	0.084023	0.263925	9249.688477
8068.013521	0.863020	0.373004	374.550720
8068.014390	1.315327	0.373004	1517.570068
8068.015349	1.331345	0.373004	2794.330078
8068.016280	1.302587	0.373004	4007.038330
8068.017214	1.273396	0.373004	5196.390137
8068.018090	1.245421	0.373004	6287.378906
8068.019072	1.216384	0.373004	7481.868164
8068.020032	0.978215	0.373004	8420.955078
8068.020931	0.143811	0.373004	8550.241211
8068.021840	0.083800	0.373004	8626.415039
8068.022802	0.083884	0.373004	8707.111328
8068.023727	0.083844	0.373004	8784.666992
8068.024594	0.083917	0.373004	8857.422852
8068.025557	0.083844	0.373004	8938.165039
8068.026506	0.083877	0.373004	9017.764648
8068.027376	0.083947	0.373004	9090.797852
8068.028411	0.083866	0.373004	9177.599609
8068.029364	0.083950	0.373004	9257.604492
8069.180356	0.858032	0.265226	367.237793
8069.181225	1.315111	0.265226	1510.069336
8069.182219	1.330873	0.265226	2832.957031
8069.183153	1.302957	0.265226	4049.918457
8069.184047	1.274081	0.265226	5188.946777
8069.184948	1.246095	0.265226	6311.678223
8069.185893	1.217164	0.265226	7461.898437
8069.186851	0.999811	0.265226	8419.716797
8069.187730	0.159946	0.265226	8560.309570
8069.188663	0.083895	0.265226	8638.583984
8069.189612	0.083921	0.265226	8718.224609
8069.190507	0.083884	0.265226	8793.300781
8069.191378	0.083796	0.265226	8866.287109
8069.192328	0.083888	0.265226	8945.980469
8069.193271	0.083862	0.265226	9025.062500
8069.194181	0.083983	0.265226	9101.487305
8069.195043	0.083925	0.265226	9173.830078
8069.196013	0.083873	0.265226	9255.187500
8070.076347	0.849177	0.371618	358.352783
8070.077275	1.315221	0.371618	1578.877808
8070.078212	1.330873	0.371618	2825.905762
8070.079141	1.303110	0.371618	4036.495117
8070.080025	1.274480	0.371618	5163.135254
8070.080895	1.246762	0.371618	6247.817871
8070.081878	1.217578	0.371618	7444.697266
8070.082814	1.041870	0.371618	8419.887695
8070.083680	0.178495	0.371618	8574.463867
8070.084646	0.083796	0.371618	8655.411133
8070.085589	0.083848	0.371618	8734.479492
8070.086470	0.083914	0.371618	8808.407227
8070.087377	0.083877	0.371618	8884.483398
8070.088308	0.083939	0.371618	8962.630859
8070.089258	0.083884	0.371618	9042.321289
8070.090144	0.083870	0.371618	9116.629883
8070.091053	0.083840	0.371618	9192.840820
8070.092006	0.083947	0.371618	9272.841797
8071.243200	0.845848	0.259736	356.102173
8071.244122	1.315334	0.259736	1568.840576
8071.245063	1.331213	0.259736	2821.512207
8071.245992	1.303656	0.259736	4032.608643
8071.246864	1.275264	0.259736	5144.638672
8071.247795	1.246044	0.259736	6304.705078
8071.248734	1.217216	0.259736	7447.670410
8071.249669	1.027687	0.259736	8408.557617
8071.250550	0.171042	0.259736	8559.246094
8071.251527	0.083851	0.259736	8641.168945
8071.252484	0.083888	0.259736	8721.449219
8071.253374	0.083950	0.259736	8796.165039
8071.254290	0.083965	0.259736	8873.077148
8071.255243	0.083932	0.259736	8953.064453
8071.256173	0.083921	0.259736	9031.111328
8071.257047	0.083895	0.259736	9104.435547
8071.257974	0.083892	0.259736	9182.203125
8071.258930	0.083943	0.259736	9262.452148
8072.138686	0.849177	0.376871	362.598694
8072.139552	1.314027	0.376871	1500.546143
8072.140527	1.331056	0.376871	2798.325684
8072.141462	1.303129	0.376871	4016.750977
8072.142394	1.273352	0.376871	5203.515137
8072.143261	1.246025	0.376871	6283.819336
8072.144236	1.217384	0.376871	7470.768555
8072.145173	1.020710	0.376871	8427.173828
8072.146038	0.168926	0.376871	8573.294922
8072.147070	0.083789	0.376871	8659.765625
8072.147946	0.083884	0.376871	8733.248047
8072.148862	0.083855	0.376871	8810.059570
8072.149744	0.083917	0.376871	8884.074219
8072.150716	0.083921	0.376871	8965.645508
8072.151639	0.083895	0.376871	9043.081055
8072.152527	0.083972	0.376871	9117.648437
8072.153390	0.083840	0.376871	9190.002930
8072.154398	0.083870	0.376871	9274.543945
8073.306571	0.868850	0.262430	384.900574
8073.307539	1.324669	0.262430	1667.180420
8073.308464	1.329873	0.262430	2897.312988
8073.309345	1.303136	0.262430	4045.375977
8073.310306	1.272931	0.262430	5268.662598
8073.311252	1.243601	0.262430	6445.109375
8073.312127	1.216384	0.262430	7509.445801
8073.313016	0.946252	0.262430	8350.664062
8073.314041	0.128115	0.262430	8481.982422
8073.314963	0.083774	0.262430	8559.222656
8073.315854	0.083914	0.262430	8633.989258
8073.316796	0.083939	0.262430	8713.059570
8073.317723	0.083881	0.262430	8790.816406
8073.318658	0.083925	0.262430	8869.286133
8073.319545	0.083903	0.262430	8943.708008
8073.320469	0.083892	0.262430	9021.223633
8073.321422	0.083906	0.262430	9101.186523
8073.322296	0.084009	0.262430	9174.610352
8074.200535	0.866235	0.383240	382.009766
8074.201409	1.316722	0.383240	1532.825195
8074.202331	1.331155	0.383240	2760.149902
8074.203402	1.300210	0.383240	4152.674805
8074.204276	1.271616	0.383240	5264.067383
8074.205153	1.244333	0.383240	6355.347656
8074.206186	1.213297	0.383240	7608.683594
8074.207159	0.865389	0.383240	8450.707031
8074.208035	0.118649	0.383240	8554.643555
8074.208903	0.083800	0.383240	8627.381836
8074.210018	0.083815	0.383240	8720.834961
8074.210912	0.083818	0.383240	8795.768555
8074.211783	0.083862	0.383240	8868.812500
8074.212831	0.083947	0.383240	8956.788086
8074.213806	0.083884	0.383240	9038.575195
8074.214676	0.083877	0.383240	9111.547852
8074.215540	0.083906	0.383240	9184.042969
8074.216639	0.083881	0.383240	9276.227539
8075.372618	0.965021	0.255615	550.061829
8075.373631	1.332733	0.255615	1900.120605
8075.374508	1.326559	0.255615	3063.512695
8075.375489	1.295669	0.255615	4334.563965
8075.376569	1.262468	0.255615	5698.029785
8075.377450	1.234629	0.255615	6785.737793
8075.378318	1.208599	0.255615	7834.801270
8075.379381	0.576819	0.255615	8447.959961
8075.380354	0.087979	0.255615	8533.563477
8075.381230	0.083822	0.255615	8606.991211
8075.382112	0.083928	0.255615	8681.015625
8075.383204	0.083903	0.255615	8772.637695
8075.384106	0.083881	0.255615	8848.297852
8075.384973	0.083895	0.255615	8921.035156
8075.386049	0.083958	0.255615	9011.373047
8075.387027	0.083873	0.255615	9093.401367
8075.387895	0.083866	0.255615	9166.197266
8075.388758	0.083914	0.255615	9238.614258
8076.264377	0.849635	0.388730	358.545959
8076.265384	1.320315	0.388730	1688.103271
8076.266444	1.325834	0.388730	3093.486816
8076.267351	1.296910	0.388730	4269.784668
8076.268220	1.267800	0.388730	5371.502930
8076.269340	1.234578	0.388730	6754.229980
8076.270301	1.206277	0.388730	7913.461914
8076.271176	0.699412	0.388730	8525.447266
8076.272213	0.091772	0.388730	8620.615234
8076.273248	0.083833	0.388730	8707.382812
8076.274146	0.083958	0.388730	8782.776367
8076.275077	0.083994	0.388730	8860.974609
8076.276139	0.083917	0.388730	8950.094727
8076.277073	0.083925	0.388730	9028.480469
8076.277932	0.083961	0.388730	9100.603516
8076.279001	0.083987	0.388730	9190.385742
8076.280008	0.083888	0.388730	9274.861328
8076.280890	0.083976	0.388730	9348.927734
8077.436882	0.865225	0.259365	383.294495
8077.437745	1.315832	0.259365	1518.857910
8077.438760	1.329759	0.259365	2868.563721
8077.439795	1.298588	0.259365	4212.602051
8077.440687	1.269954	0.259365	5345.400391
8077.441628	1.240745	0.259365	6512.940918
8077.442710	1.208379	0.259365	7820.406738
8077.443648	0.709893	0.259365	8486.286133
8077.444518	0.099221	0.259365	8572.608398
8077.445585	0.083881	0.259365	8662.109375
8077.446597	0.083976	0.259365	8747.092773
8077.447495	0.083917	0.259365	8822.450195
8077.448463	0.083976	0.259365	8903.739258
8077.449528	0.083961	0.259365	8993.158203
8077.450441	0.083969	0.259365	9069.821289
8077.451304	0.083990	0.259365	9142.304687
8077.452378	0.084045	0.259365	9232.569336
8077.453364	0.083958	0.259365	9315.351562
8078.324716	0.915249	0.395925	433.828064
8078.325647	1.323303	0.395925	1665.823486
8078.326524	1.331063	0.395925	2833.166016
8078.327444	1.303337	0.395925	4032.236328
8078.328411	1.272330	0.395925	5262.579590
8078.329338	1.243755	0.395925	6415.540527
8078.330205	1.217245	0.395925	7470.891602
8078.331184	0.992443	0.395925	8442.493164
8078.332141	0.144386	0.395925	8580.670898
8078.333026	0.083719	0.395925	8654.762695
8078.333895	0.083892	0.395925	8727.664062
8078.334853	0.083895	0.395925	8808.036133
8078.335779	0.083844	0.395925	8885.675781
8078.336653	0.083866	0.395925	8958.974609
8078.337627	0.083844	0.395925	9040.638672
8078.338583	0.083833	0.395925	9120.783203
8078.339478	0.083884	0.395925	9195.859375
8078.340373	0.083881	0.395925	9270.932617
8079.503850	0.901362	0.247312	426.344360
8079.504794	1.325021	0.247312	1677.163940
8079.505728	1.329807	0.247312	2919.203857
8079.506597	1.302737	0.247312	4051.282227
8079.507576	1.272305	0.247312	5296.868652
8079.508532	1.242803	0.247312	6484.988281
8079.509431	1.215403	0.247312	7577.635254
8079.510359	0.958733	0.247312	8467.339844
8079.511293	0.131169	0.247312	8589.852539
8079.512219	0.083881	0.247312	8667.526367
8079.513107	0.084075	0.247312	8742.184570
8079.514022	0.083983	0.247312	8819.029297
8079.514992	0.084056	0.247312	8900.564453
8079.515913	0.084056	0.247312	8977.980469
8079.516785	0.084005	0.247312	9051.233398
8079.517762	0.084031	0.247312	9133.331055
8079.518686	0.084038	0.247312	9210.982422
8079.519613	0.084042	0.247312	9288.888672
8080.387012	0.857703	0.402656	369.669861
8080.387883	1.315166	0.402656	1515.179443
8080.388747	1.333268	0.402656	2667.122803
8080.389710	1.305158	0.402656	3923.989502
8080.390642	1.275286	0.402656	5112.555664
8080.391568	1.246710	0.402656	6267.009277
8080.392435	1.219655	0.402656	7324.449707
8080.393442	1.052084	0.402656	8383.898437
8080.394376	0.171606	0.402656	8544.178711
8080.395254	0.083848	0.402656	8617.796875
8080.396182	0.083859	0.402656	8695.618164
8080.397106	0.083829	0.402656	8773.076172
8080.398037	0.083881	0.402656	8851.168945
8080.398914	0.083844	0.402656	8924.700195
8080.399850	0.083921	0.402656	9003.250000
8080.400811	0.083914	0.402656	9083.890625
8080.401732	0.083840	0.402656	9161.107422
8080.402593	0.083877	0.402656	9233.325195
8081.569761	0.874563	0.247119	392.678772
8081.570640	1.317382	0.247119	1550.657227
8081.571506	1.333000	0.247119	2705.035645
8081.572420	1.306062	0.247119	3898.776367
8081.573400	1.274667	0.247119	5147.949707
8081.574326	1.246047	0.247119	6301.789551
8081.575216	1.219175	0.247119	7386.854980
8081.576129	1.076576	0.247119	8369.768555
8081.577099	0.176246	0.247119	8540.727539
8081.578029	0.083870	0.247119	8618.726562
8081.578894	0.083877	0.247119	8691.280273
8081.579847	0.083877	0.247119	8771.214844
8081.580779	0.083884	0.247119	8849.394531
8081.581650	0.083947	0.247119	8922.511719
8081.582738	0.083906	0.247119	9013.801758
8081.583613	0.083906	0.247119	9087.219727
8081.584520	0.083822	0.247119	9163.246094
8081.585396	0.083979	0.247119	9236.812500
8082.446783	0.850734	0.418911	359.860321
8082.447679	1.314716	0.418911	1537.845581
8082.448769	1.327511	0.418911	2984.832520
8082.449720	1.298207	0.418911	4219.427246
8082.450581	1.270323	0.418911	5313.175781
8082.451636	1.238170	0.418911	6619.445312
8082.452676	1.207277	0.418911	7875.012695
8082.453556	0.722871	0.418911	8511.139648
8082.454509	0.100203	0.418911	8606.632812
8082.455555	0.083793	0.418911	8694.280273
8082.456488	0.083906	0.418911	8772.564453
8082.457354	0.083954	0.418911	8845.268555
8082.458405	0.083976	0.418911	8933.527344
8082.459413	0.083855	0.418911	9018.052734
8082.460298	0.084001	0.418911	9092.393555
8082.461265	0.084027	0.418911	9173.647461
8082.462315	0.083947	0.418911	9261.791016
8082.463236	0.083950	0.418911	9339.109375
8083.640762	0.872648	0.229515	369.129974
8083.641866	1.329291	0.229515	1836.666992
8083.642847	1.325413	0.229515	3136.896484
8083.643719	1.297782	0.229515	4268.562500
8083.644753	1.264856	0.229515	5576.423828
8083.645801	1.233029	0.229515	6868.637695
8083.646691	1.206229	0.229515	7942.181641
8083.647631	0.635665	0.229515	8539.707031
8083.648715	0.087422	0.229515	8634.472656
8083.649649	0.083815	0.229515	8712.755859
8083.650520	0.083943	0.229515	8785.870117
8083.651580	0.083855	0.229515	8874.756836
8083.652586	0.083855	0.229515	8959.115234
8083.653472	0.083939	0.229515	9033.485352
8083.654420	0.083947	0.229515	9113.066406
8083.655460	0.083925	0.229515	9200.347656
8083.656374	0.083976	0.229515	9277.101562
8083.657233	0.083917	0.229515	9349.186523
8084.511709	0.892635	0.417565	404.363861
8084.512605	1.320070	0.417565	1587.146240
8084.513473	1.331495	0.417565	2742.884277
8084.514455	1.303162	0.417565	4022.588867
8084.515415	1.272686	0.417565	5244.367187
8084.516310	1.244791	0.417565	6358.455078
8084.517231	1.216985	0.417565	7479.297852
8084.518191	0.995603	0.417565	8435.077148
8084.519091	0.154559	0.417565	8574.180664
8084.520023	0.083851	0.417565	8652.330078
8084.520945	0.083958	0.417565	8729.739258
8084.521884	0.083848	0.417565	8808.472656
8084.522774	0.083958	0.417565	8883.195312
8084.523678	0.083855	0.417565	8959.000000
8084.524631	0.083925	0.417565	9038.980469
8084.525554	0.084045	0.417565	9116.554687
8084.526421	0.083870	0.417565	9189.269531
8084.527388	0.083906	0.417565	9270.407227
8085.703097	0.861075	0.239985	365.095978
8085.704071	1.322175	0.239985	1652.894653
8085.705004	1.329840	0.239985	2893.635254
8085.705893	1.303026	0.239985	4052.025391
8085.706814	1.274081	0.239985	5225.454102
8085.707784	1.243814	0.239985	6431.953125
8085.708714	1.215674	0.239985	7562.529785
8085.709584	1.027233	0.239985	8456.222656
8085.710554	0.142299	0.239985	8594.251953
8085.711505	0.083745	0.239985	8673.893555
8085.712438	0.083892	0.239985	8752.164062
8085.713298	0.083815	0.239985	8824.245117
8085.714251	0.083892	0.239985	8904.193359
8085.715207	0.083932	0.239985	8984.432617
8085.716105	0.083884	0.239985	9059.760742
8085.717021	0.083976	0.239985	9136.682617
8085.717969	0.083873	0.239985	9216.194336
8085.718876	0.083899	0.239985	9292.291016
8086.573053	0.893108	0.424691	426.905609
8086.573949	1.321677	0.424691	1611.128418
8086.574822	1.331404	0.424691	2773.443848
8086.575740	1.304901	0.424691	3971.343018
8086.576678	1.273707	0.424691	5166.080566
8086.577627	1.244648	0.424691	6347.251953
8086.578524	1.217567	0.424691	7439.409668
8086.579457	1.014404	0.424691	8385.848633
8086.580421	0.155270	0.424691	8535.528320
8086.581349	0.083738	0.424691	8613.237305
8086.582208	0.083840	0.424691	8685.255859
8086.583150	0.083822	0.424691	8764.215820
8086.584097	0.083892	0.424691	8843.661133
8086.584995	0.083895	0.424691	8918.999023
8086.585858	0.083859	0.424691	8991.369141
8086.586820	0.083873	0.424691	9072.055664
8086.587753	0.083925	0.424691	9150.357422
8086.588616	0.083910	0.424691	9222.771484
8087.769018	0.864082	0.220335	365.506714
8087.769996	1.322435	0.220335	1658.848389
8087.770930	1.329866	0.220335	2900.942871
8087.771807	1.303249	0.220335	4043.892578
8087.772724	1.273616	0.220335	5211.798340
8087.773678	1.243824	0.220335	6398.406738
8087.774616	1.215857	0.220335	7538.880371
8087.775499	1.013188	0.220335	8433.525391
8087.776469	0.147235	0.220335	8576.343750
8087.777394	0.083727	0.220335	8653.791016
8087.778303	0.083888	0.220335	8730.044922
8087.779169	0.083881	0.220335	8802.685547
8087.780142	0.083895	0.220335	8884.315430
8087.781090	0.083906	0.220335	8963.858398
8087.781968	0.083958	0.220335	9037.573242
8087.782879	0.083892	0.220335	9113.998047
8087.783807	0.083888	0.220335	9191.845703
8087.784739	0.083932	0.220335	9270.070312
8088.635869	0.877321	0.428421	389.530304
8088.636747	1.316700	0.428421	1545.593262
8088.637618	1.332642	0.428421	2706.324219
8088.638582	1.305685	0.428421	3965.004395
8088.639511	1.274070	0.428421	5148.615234
8088.640435	1.245886	0.428421	6299.813965
8088.641313	1.218453	0.428421	7369.616211
8088.642328	1.019429	0.428421	8404.335937
8088.643248	0.153831	0.428421	8545.860352
8088.644135	0.083793	0.428421	8620.184570
8088.644997	0.083906	0.428421	8692.511719
8088.646009	0.083870	0.428421	8777.387695
8088.646935	0.083961	0.428421	8855.135742
8088.647802	0.083932	0.428421	8927.904297
8088.648831	0.083961	0.428421	9014.300781
8088.649715	0.083965	0.428421	9088.525391
8088.650616	0.083990	0.428421	9164.201172
8088.651495	0.083976	0.428421	9238.015625
8089.832422	0.886216	0.220657	399.683350
8089.833354	1.321857	0.220657	1631.653687
8089.834233	1.331645	0.220657	2802.169922
8089.835165	1.304454	0.220657	4017.921387
8089.836106	1.273835	0.220657	5216.600586
8089.837000	1.245366	0.220657	6329.958008
8089.837885	1.217739	0.220657	7407.657227
8089.838917	0.974139	0.220657	8412.968750
8089.839838	0.140369	0.220657	8542.248047
8089.840722	0.083793	0.220657	8616.321289
8089.841604	0.083855	0.220657	8690.281250
8089.842597	0.083917	0.220657	8773.611328
8089.843525	0.083873	0.220657	8851.445312
8089.844403	0.083925	0.220657	8925.130859
8089.845326	0.083877	0.220657	9002.548828
8089.846297	0.083840	0.220657	9083.958008
8089.847184	0.083947	0.220657	9158.418945
8089.848078	0.083877	0.220657	9233.405273
8090.698703	0.875424	0.417642	387.812653
8090.699581	1.316913	0.417642	1544.062012
8090.700444	1.331942	0.417642	2693.528076
8090.701554	1.300576	0.417642	4137.167969
8090.702469	1.270884	0.417642	5300.026367
8090.703351	1.243696	0.417642	6396.966797
8090.704346	1.214249	0.417642	7605.144531
8090.705345	0.851583	0.417642	8455.875977
8090.706230	0.116429	0.417642	8558.916016
8090.707088	0.083859	0.417642	8630.867187
8090.708174	0.083987	0.417642	8722.077148
8090.709080	0.083932	0.417642	8798.119141
8090.709946	0.083884	0.417642	8870.762695
8090.710933	0.083990	0.417642	8953.661133
8090.711949	0.083881	0.417642	9038.883789
8090.712840	0.083954	0.417642	9113.686523
8090.713705	0.083943	0.417642	9186.296875
8090.714781	0.083950	0.417642	9276.626953
8091.897396	0.944637	0.226768	501.602509
8091.898421	1.331612	0.226768	1866.505371
8091.899298	1.327229	0.226768	3030.485352
8091.900264	1.297504	0.226768	4283.874023
8091.901330	1.263065	0.226768	5630.301758
8091.902261	1.234281	0.226768	6779.417480
8091.903137	1.207668	0.226768	7837.334961
8091.904210	0.553162	0.226768	8430.876953
8091.905212	0.086854	0.226768	8517.905273
8091.906106	0.083866	0.226768	8592.881836
8091.907086	0.084038	0.226768	8675.239258
8091.908143	0.083979	0.226768	8764.005859
8091.909041	0.083932	0.226768	8839.376953
8091.909913	0.083928	0.226768	8912.562500
8091.910906	0.083892	0.226768	8995.867187
8091.911892	0.083851	0.226768	9078.544922
8091.912775	0.083939	0.226768	9152.663086
8091.913632	0.083943	0.226768	9224.602539
8092.762041	0.844922	0.417553	355.712097
8092.762974	1.314558	0.417553	1582.194824
8092.764034	1.327361	0.417553	2989.197266
8092.765051	1.295782	0.417553	4307.007812
8092.765947	1.267247	0.417553	5442.461426
8092.766915	1.237914	0.417553	6640.762207
8092.767981	1.205607	0.417553	7925.938965
8092.768913	0.611246	0.417553	8495.620117
8092.769772	0.093739	0.417553	8576.141602
8092.770869	0.083914	0.417553	8668.194336
8092.771866	0.083877	0.417553	8751.819336
8092.772761	0.083881	0.417553	8826.892578
8092.773760	0.083961	0.417553	8910.769531
8092.774815	0.084012	0.417553	8999.402344
8092.775701	0.083976	0.417553	9073.804687
8092.776569	0.083972	0.417553	9146.692383
8092.777683	0.084027	0.417553	9240.298828
8092.778634	0.083807	0.417553	9320.000000
8093.960231	0.938401	0.231445	501.106079
8093.961285	1.331803	0.231445	1904.826416
8093.962194	1.325490	0.231445	3109.696289
8093.963063	1.296874	0.231445	4236.679687
8093.964189	1.262355	0.231445	5658.090820
8093.965164	1.232787	0.231445	6860.058105
8093.966036	1.206592	0.231445	7912.206055
8093.967112	0.499193	0.231445	8449.337891
8093.968132	0.086027	0.231445	8537.084961
8093.969016	0.083862	0.231445	8611.218750
8093.969940	0.084012	0.231445	8688.846680
8093.971004	0.083862	0.231445	8778.076172
8093.971943	0.083844	0.231445	8856.805664
8093.972804	0.083851	0.231445	8929.001953
8093.973857	0.083939	0.231445	9017.389648
8093.974876	0.083833	0.231445	9102.815430
8093.975757	0.083866	0.231445	9176.701172
8093.976697	0.084023	0.231445	9255.683594
8094.811583	0.867865	0.436490	370.578339
8094.812564	1.322578	0.436490	1668.027466
8094.813494	1.329349	0.436490	2904.322266
8094.814376	1.302777	0.436490	4053.371582
8094.815317	1.273019	0.436490	5251.282227
8094.816267	1.243107	0.436490	6432.233398
8094.817194	1.215121	0.436490	7558.650391
8094.818077	1.002554	0.436490	8443.905273
8094.819038	0.145518	0.436490	8583.748047
8094.819986	0.083796	0.436490	8663.187500
8094.820895	0.083873	0.436490	8739.428711
8094.821759	0.083848	0.436490	8811.873047
8094.822732	0.083899	0.436490	8893.506836
8094.823652	0.083888	0.436490	8970.683594
8094.824511	0.083848	0.436490	9042.708984
8094.825491	0.083866	0.436490	9124.897461
8094.826429	0.083895	0.436490	9203.590820
8094.827311	0.083950	0.436490	9277.634766
8096.041914	0.860449	0.212435	363.109589
8096.042870	1.321490	0.212435	1626.454468
8096.043797	1.330360	0.212435	2859.698242
8096.044683	1.303466	0.212435	4014.568848
8096.045663	1.272554	0.212435	5261.671875
8096.046616	1.243363	0.212435	6446.596680
8096.047514	1.215923	0.212435	7538.495117
8096.048434	0.994167	0.212435	8453.128906
8096.049382	0.138999	0.212435	8584.900391
8096.050320	0.083752	0.212435	8663.459961
8096.051201	0.083932	0.212435	8737.404297
8096.052129	0.083899	0.212435	8815.262695
8096.053064	0.083837	0.212435	8893.650391
8096.053975	0.083925	0.212435	8970.105469
8096.054849	0.083877	0.212435	9043.414062
8096.055809	0.083844	0.212435	9123.904297
8096.056771	0.083914	0.212435	9204.628906
8096.057665	0.084001	0.212435	9279.726562
8096.874972	0.879737	0.415825	393.242676
8096.875850	1.316093	0.415825	1548.771973
8096.876728	1.330913	0.415825	2717.313477
8096.877681	1.305187	0.415825	3961.156494
8096.878638	1.273726	0.415825	5180.111816
8096.879551	1.245172	0.415825	6316.954102
8096.880433	1.217736	0.415825	7390.997070
8096.881463	0.969609	0.415825	8389.694336
8096.882369	0.143075	0.415825	8519.320312
8096.883291	0.083804	0.415825	8596.586914
8096.884156	0.083873	0.415825	8669.137695
8096.885143	0.083859	0.415825	8751.906250
8096.886074	0.083873	0.415825	8829.992187
8096.886937	0.083939	0.415825	8902.431641
8096.887965	0.083884	0.415825	8988.665039
8096.888837	0.083903	0.415825	9061.828125
8096.889756	0.083998	0.415825	9139.022461
8096.890615	0.083990	0.415825	9211.169922
8098.106805	0.843951	0.218099	356.147491
8098.107774	1.318879	0.218099	1634.141602
8098.108690	1.330510	0.218099	2852.889160
8098.109629	1.302572	0.218099	4076.004395
8098.110501	1.274008	0.218099	5186.938965
8098.111486	1.244169	0.218099	6412.445312
8098.112413	1.215483	0.218099	7539.198242
8098.113332	0.977831	0.218099	8437.824219
8098.114214	0.149604	0.218099	8569.775391
8098.115190	0.083796	0.218099	8651.560547
8098.116116	0.083943	0.218099	8729.291992
8098.116978	0.083881	0.218099	8801.596680
8098.117989	0.083932	0.218099	8886.452148
8098.118883	0.083859	0.218099	8961.421875
8098.119806	0.083859	0.218099	9038.823242
8098.120669	0.083947	0.218099	9111.269531
8098.121659	0.083862	0.218099	9194.292969
8098.122576	0.083972	0.218099	9271.295898
