time (s)	coil I (A)	last det (V)	int current (uC)
6830.903257	0.873406	0.417074	374.691071
6830.904191	1.316942	0.417074	1604.714966
6830.905147	1.329716	0.417074	2875.923096
6830.906067	1.302063	0.417074	4073.821045
6830.906943	1.273821	0.417074	5189.687988
6830.907907	1.244004	0.417074	6388.907715
6830.908846	1.215399	0.417074	7530.167480
6830.909769	0.981881	0.417074	8436.443359
6830.910656	0.150099	0.417074	8569.581055
6830.911626	0.083716	0.417074	8650.785156
6830.912545	0.083774	0.417074	8727.773437
6830.913454	0.083818	0.417074	8803.963867
6830.914317	0.083800	0.417074	8876.283203
6830.915292	0.083848	0.417074	8958.035156
6830.916218	0.083833	0.417074	9035.664062
6830.917078	0.084001	0.417074	9107.905273
6830.918079	0.083818	0.417074	9191.807617
6830.918980	0.083796	0.417074	9267.308594
6831.968219	0.879946	0.399164	387.176361
6831.969097	1.317667	0.399164	1544.088257
6831.970068	1.330671	0.399164	2836.170166
6831.971092	1.299770	0.399164	4167.135254
6831.971991	1.271129	0.399164	5309.880371
6831.972863	1.243520	0.399164	6394.230469
6831.973936	1.211517	0.399164	7694.188477
6831.974887	0.819441	0.399164	8473.476562
6831.975768	0.110255	0.399164	8570.611328
6831.976727	0.083818	0.399164	8650.993164
6831.977748	0.083774	0.399164	8736.526367
6831.978628	0.083873	0.399164	8810.334961
6831.979488	0.083895	0.399164	8882.485352
6831.980557	0.083815	0.399164	8972.083008
6831.981493	0.083782	0.399164	9050.502930
6831.982357	0.083844	0.399164	9122.944336
6831.983297	0.083892	0.399164	9201.802734
6831.984351	0.083807	0.399164	9290.135742
6832.967119	0.871677	0.423289	380.922943
6832.967997	1.316825	0.423289	1537.095215
6832.968930	1.331671	0.423289	2779.544434
6832.969904	1.303385	0.423289	4049.041504
6832.970825	1.273429	0.423289	5221.869629
6832.971702	1.246000	0.423289	6314.611328
6832.972688	1.216344	0.423289	7513.926758
6832.973634	0.971133	0.423289	8432.618164
6832.974511	0.150333	0.423289	8564.459961
6832.975568	0.083745	0.423289	8652.978516
6832.976513	0.083822	0.423289	8732.190430
6832.977438	0.083899	0.423289	8809.796875
6832.978296	0.083833	0.423289	8881.725586
6832.979258	0.083789	0.423289	8962.331055
6832.980201	0.083804	0.423289	9041.358398
6832.981096	0.083873	0.423289	9116.424805
6832.982011	0.083840	0.423289	9193.138672
6832.982954	0.083855	0.423289	9272.213867
6834.033082	0.846617	0.381991	356.425964
6834.033975	1.314247	0.381991	1530.048340
6834.034931	1.331027	0.381991	2802.509766
6834.035865	1.303784	0.381991	4020.244141
6834.036743	1.275582	0.381991	5140.205566
6834.037672	1.246600	0.381991	6298.297363
6834.038637	1.217790	0.381991	7473.465332
6834.039548	1.028533	0.381991	8410.458984
6834.040431	0.172559	0.381991	8562.828125
6834.041384	0.083892	0.381991	8642.776367
6834.042337	0.083822	0.381991	8722.659180
6834.043239	0.083939	0.381991	8798.372070
6834.044118	0.083859	0.381991	8872.083984
6834.045067	0.083914	0.381991	8951.717773
6834.046019	0.083866	0.381991	9031.558594
6834.046914	0.083925	0.381991	9106.670898
6834.047843	0.083917	0.381991	9184.629883
6834.048796	0.083914	0.381991	9264.599609
6835.022782	0.869172	0.414556	368.529083
6835.023874	1.328243	0.414556	1818.970947
6835.024776	1.327705	0.414556	3016.561035
6835.025650	1.300770	0.414556	4153.434082
6835.026672	1.268265	0.414556	5449.601562
6835.027689	1.236830	0.414556	6707.457520
6835.028583	1.209917	0.414556	7789.123047
6835.029454	0.798856	0.414556	8484.926758
6835.030566	0.095431	0.414556	8591.045898
6835.031444	0.083752	0.414556	8664.580078
6835.032319	0.083859	0.414556	8737.956055
6835.033311	0.083972	0.414556	8821.256836
6835.034314	0.083888	0.414556	8905.396484
6835.035207	0.083818	0.414556	8980.246094
6835.036071	0.083877	0.414556	9052.715820
6835.037167	0.083877	0.414556	9144.644531
6835.038084	0.083884	0.414556	9221.566406
6835.038961	0.083906	0.414556	9295.152344
6836.097037	0.911243	0.390926	460.177551
6836.097936	1.323508	0.390926	1650.011475
6836.098799	1.330569	0.390926	2798.292480
6836.099880	1.298489	0.390926	4201.958984
6836.100891	1.266193	0.390926	5482.080078
6836.101784	1.238961	0.390926	6588.472656
6836.102789	1.209192	0.390926	7803.710449
6836.103863	0.585417	0.390926	8432.449219
6836.104748	0.090634	0.390926	8512.660156
6836.105634	0.083789	0.390926	8586.897461
6836.106747	0.083881	0.390926	8680.256836
6836.107694	0.083917	0.390926	8759.726562
6836.108565	0.083796	0.390926	8832.712891
6836.109595	0.083884	0.390926	8919.113281
6836.110614	0.083837	0.390926	9004.542969
6836.111506	0.083873	0.390926	9079.358398
6836.112442	0.083917	0.390926	9157.905273
6836.113498	0.083855	0.390926	9246.456055
6837.085163	0.865151	0.418306	400.565063
6837.086051	1.319707	0.418306	1572.464966
6837.086920	1.332286	0.418306	2730.221680
6837.087894	1.303839	0.418306	4000.161133
6837.088832	1.273348	0.418306	5194.562012
6837.089764	1.244751	0.418306	6354.669922
6837.090631	1.218054	0.418306	7410.722656
6837.091603	1.001137	0.418306	8383.827148
6837.092514	0.155131	0.418306	8525.151367
6837.093389	0.083796	0.418306	8598.473633
6837.094340	0.083892	0.418306	8678.254883
6837.095292	0.083833	0.418306	8758.063477
6837.096183	0.083877	0.418306	8832.797852
6837.097071	0.083873	0.418306	8907.277344
6837.098023	0.083848	0.418306	8987.100586
6837.098972	0.083855	0.418306	9066.678711
6837.099861	0.083870	0.418306	9141.239258
6837.100785	0.083914	0.418306	9218.775391
6838.160836	0.854934	0.385677	369.331543
6838.161705	1.314741	0.385677	1511.841553
6838.162570	1.333553	0.385677	2665.365234
6838.163635	1.303564	0.385677	4053.661377
6838.164537	1.273810	0.385677	5202.637695
6838.165421	1.246238	0.385677	6304.312012
6838.166289	1.218655	0.385677	7362.104492
6838.167353	0.977336	0.385677	8401.990234
6838.168246	0.149224	0.385677	8535.247070
6838.169116	0.083855	0.385677	8608.201172
6838.170135	0.083943	0.385677	8693.739258
6838.171037	0.083925	0.385677	8769.439453
6838.171951	0.083866	0.385677	8846.092773
6838.172830	0.083851	0.385677	8919.797852
6838.173877	0.083899	0.385677	9007.639648
6838.174775	0.083848	0.385677	9082.934570
6838.175652	0.083855	0.385677	9156.475586
6838.176617	0.083906	0.385677	9237.445312
6839.146538	0.946824	0.405835	506.550659
6839.147486	1.328569	0.405835	1766.034302
6839.148351	1.329170	0.405835	2915.766113
6839.149436	1.296423	0.405835	4322.385254
6839.150445	1.264186	0.405835	5597.948730
6839.151345	1.236409	0.405835	6710.716797
6839.152323	1.207562	0.405835	7891.712891
6839.153375	0.533657	0.405835	8453.120117
6839.154283	0.088707	0.405835	8533.666016
6839.155146	0.083793	0.405835	8605.979492
6839.156231	0.084031	0.405835	8697.153320
6839.157225	0.083848	0.405835	8780.498047
6839.158103	0.083925	0.405835	8854.183594
6839.159093	0.083936	0.405835	8937.279297
6839.160137	0.083855	0.405835	9024.824219
6839.161032	0.083958	0.405835	9099.965820
6839.161889	0.084001	0.405835	9171.955078
6839.162981	0.083983	0.405835	9263.665039
6840.224771	0.934468	0.396070	465.364929
6840.225727	1.325830	0.396070	1732.858398
6840.226657	1.328950	0.396070	2968.782227
6840.227522	1.302026	0.396070	4095.035156
6840.228502	1.271653	0.396070	5341.254883
6840.229443	1.242030	0.396070	6510.004883
6840.230335	1.214773	0.396070	7593.582520
6840.231218	0.959418	0.396070	8440.748047
6840.232183	0.128661	0.396070	8564.906250
6840.233132	0.083771	0.396070	8644.404297
6840.234022	0.083925	0.396070	8719.096680
6840.234933	0.083884	0.396070	8795.515625
6840.235897	0.083990	0.396070	8876.482422
6840.236784	0.083910	0.396070	8950.910156
6840.237702	0.083954	0.396070	9027.979492
6840.238664	0.083892	0.396070	9108.683594
6840.239585	0.083943	0.396070	9185.995117
6840.240451	0.083979	0.396070	9258.721680
6841.206717	0.857076	0.414431	362.543335
6841.207696	1.321154	0.414431	1655.952637
6841.208630	1.329983	0.414431	2898.156738
6841.209516	1.303041	0.414431	4052.650879
6841.210408	1.274264	0.414431	5189.293945
6841.211366	1.244308	0.414431	6381.340820
6841.212323	1.215868	0.414431	7544.926270
6841.213202	1.023765	0.414431	8444.815430
6841.214152	0.157881	0.414431	8594.802734
6841.215088	0.083727	0.414431	8673.170898
6841.215984	0.083939	0.414431	8748.380859
6841.216897	0.083910	0.414431	8824.990234
6841.217845	0.083910	0.414431	8904.537109
6841.218770	0.083851	0.414431	8982.099609
6841.219648	0.083884	0.414431	9055.750000
6841.220602	0.083862	0.414431	9135.754883
6841.221561	0.083822	0.414431	9216.140625
6841.222486	0.083947	0.414431	9293.791016
6842.287046	0.853081	0.382084	371.943329
6842.287917	1.314690	0.382084	1517.038208
6842.288781	1.333601	0.382084	2669.269531
6842.289848	1.303403	0.382084	4060.000977
6842.290739	1.274264	0.382084	5195.370117
6842.291613	1.246849	0.382084	6285.116211
6842.292476	1.219083	0.382084	7337.185059
6842.293534	0.989956	0.382084	8384.558594
6842.294440	0.154424	0.382084	8524.466797
6842.295316	0.083829	0.382084	8597.901367
6842.296296	0.083972	0.382084	8680.194336
6842.297243	0.083840	0.382084	8759.590820
6842.298170	0.083914	0.382084	8837.378906
6842.299032	0.083877	0.382084	8909.680664
6842.300061	0.083936	0.382084	8996.050781
6842.300945	0.083807	0.382084	9070.136719
6842.301817	0.083884	0.382084	9143.284180
6842.302786	0.083910	0.382084	9224.592773
6843.268668	0.945513	0.399788	524.759583
6843.269708	1.331829	0.399788	1909.861328
6843.270606	1.325654	0.399788	3100.298828
6843.271471	1.297427	0.399788	4222.573242
6843.272577	1.263593	0.399788	5620.106445
6843.273548	1.233816	0.399788	6818.141602
6843.274411	1.207657	0.399788	7860.350098
6843.275506	0.526674	0.399788	8437.057617
6843.276543	0.086235	0.399788	8526.483398
6843.277425	0.083851	0.399788	8600.440430
6843.278336	0.083910	0.399788	8676.882812
6843.279435	0.083928	0.399788	8769.120117
6843.280373	0.083848	0.399788	8847.769531
6843.281233	0.083855	0.399788	8919.884766
6843.282278	0.083910	0.399788	9007.570312
6843.283309	0.083895	0.399788	9094.066406
6843.284203	0.083840	0.399788	9169.019531
6843.285157	0.083936	0.399788	9249.093750
6844.350913	0.853114	0.394169	365.985901
6844.351927	1.319971	0.394169	1704.436035
6844.352984	1.325966	0.394169	3105.981445
6844.353875	1.297661	0.394169	4262.197266
6844.354746	1.268306	0.394169	5366.891602
6844.355848	1.235500	0.394169	6728.413086
6844.356818	1.206804	0.394169	7899.013184
6844.357698	0.708900	0.394169	8522.845703
6844.358721	0.092816	0.394169	8617.796875
6844.359760	0.083826	0.394169	8704.891602
6844.360651	0.083793	0.394169	8779.550781
6844.361575	0.083903	0.394169	8857.077148
6844.362637	0.083928	0.394169	8946.208984
6844.363582	0.083892	0.394169	9025.486328
6844.364451	0.083917	0.394169	9098.410156
6844.365498	0.083925	0.394169	9186.279297
6844.366519	0.083796	0.394169	9271.834961
6844.367414	0.083895	0.394169	9346.920898
6845.331411	0.871392	0.409283	384.283691
6845.332334	1.320604	0.409283	1603.201416
6845.333213	1.331587	0.409283	2773.666504
6845.334170	1.303813	0.409283	4021.416016
6845.335102	1.273367	0.409283	5208.193848
6845.335995	1.245725	0.409283	6320.626465
6845.337003	1.214934	0.409283	7545.279785
6845.337972	0.914026	0.409283	8430.970703
6845.338895	0.124307	0.409283	8545.706055
6845.339759	0.083646	0.409283	8617.976562
6845.340738	0.083837	0.409283	8700.052734
6845.341697	0.083892	0.409283	8780.504883
6845.342585	0.083833	0.409283	8854.948242
6845.343478	0.083844	0.409283	8929.821289
6845.344415	0.083859	0.409283	9008.396484
6845.345370	0.083829	0.409283	9088.453125
6845.346257	0.083793	0.409283	9162.777344
6845.347166	0.083848	0.409283	9238.995117
6846.413794	0.863097	0.383860	397.887695
6846.414681	1.319421	0.383860	1568.214478
6846.415578	1.331001	0.383860	2762.122314
6846.416600	1.301671	0.383860	4092.430176
6846.417516	1.272426	0.383860	5257.971680
6846.418398	1.244908	0.383860	6355.980957
6846.419473	1.213297	0.383860	7660.275391
6846.420378	0.899220	0.383860	8474.069336
6846.421250	0.127134	0.383860	8584.929687
6846.422128	0.083851	0.383860	8658.550781
6846.423165	0.083884	0.383860	8745.539062
6846.424051	0.083848	0.383860	8819.828125
6846.424914	0.083899	0.383860	8892.232422
6846.425890	0.083877	0.383860	8974.096680
6846.426818	0.083862	0.383860	9051.920898
6846.427730	0.083921	0.383860	9128.457031
6846.428603	0.083848	0.383860	9201.656250
6846.429639	0.083895	0.383860	9288.571289
6847.394231	0.855198	0.401585	360.893433
6847.395306	1.327368	0.401585	1787.814209
6847.396320	1.325065	0.401585	3131.429687
6847.397218	1.296812	0.401585	4295.966309
6847.398191	1.266339	0.401585	5528.114258
6847.399240	1.234036	0.401585	6822.617676
6847.400145	1.206647	0.401585	7914.632812
6847.401015	0.698035	0.401585	8521.922852
6847.402097	0.090692	0.401585	8620.051758
6847.403084	0.083910	0.401585	8702.871094
6847.403970	0.083906	0.401585	8777.211914
6847.404975	0.084016	0.401585	8861.648437
6847.406015	0.083866	0.401585	8948.869141
6847.406906	0.083903	0.401585	9023.625977
6847.407762	0.083936	0.401585	9095.474609
6847.408865	0.083943	0.401585	9188.063477
6847.409816	0.083840	0.401585	9267.795898
6847.410682	0.083903	0.401585	9340.455078
6848.474112	0.885981	0.386753	427.043060
6848.475012	1.322311	0.386753	1617.122803
6848.475889	1.331411	0.386753	2784.770508
6848.476804	1.305319	0.386753	3979.136963
6848.477734	1.274139	0.386753	5164.086914
6848.478686	1.245044	0.386753	6349.368652
6848.479578	1.218160	0.386753	7435.967773
6848.480516	1.018575	0.386753	8391.391602
6848.481476	0.157009	0.386753	8542.120117
6848.482404	0.083774	0.386753	8619.862305
6848.483263	0.083873	0.386753	8691.909180
6848.484208	0.083870	0.386753	8771.166016
6848.485147	0.083848	0.386753	8849.899414
6848.486047	0.083921	0.386753	8925.427734
6848.486908	0.083829	0.386753	8997.604492
6848.487874	0.083866	0.386753	9078.619141
6848.488826	0.083866	0.386753	9158.459961
6848.489719	0.083855	0.386753	9233.342773
6849.458612	0.845046	0.409456	356.609558
6849.459537	1.317268	0.409456	1575.082520
6849.460496	1.330162	0.409456	2850.708252
6849.461428	1.302612	0.409456	4064.742920
6849.462295	1.274205	0.409456	5169.479004
6849.463266	1.244974	0.409456	6378.349121
6849.464215	1.216395	0.409456	7532.708008
6849.465111	1.016104	0.409456	8443.136719
6849.466024	0.165022	0.409456	8593.801758
6849.466960	0.083719	0.409456	8672.163086
6849.467907	0.083851	0.409456	8751.570312
6849.468792	0.083848	0.409456	8825.775391
6849.469701	0.083939	0.409456	8902.076172
6849.470671	0.083837	0.409456	8983.397461
6849.471555	0.083851	0.409456	9057.522461
6849.472441	0.083859	0.409456	9131.821289
6849.473390	0.083818	0.409456	9211.365234
6849.474342	0.083778	0.409456	9291.122070
6850.535455	0.927206	0.377346	471.020569
6850.536373	1.325731	0.377346	1688.041748
6850.537251	1.330386	0.377346	2856.120605
6850.538221	1.301426	0.377346	4118.503906
6850.539252	1.268016	0.377346	5425.828613
6850.540151	1.240210	0.377346	6540.777344
6850.541016	1.213583	0.377346	7590.526367
6850.542104	0.754709	0.377346	8411.650391
6850.543041	0.098683	0.377346	8504.116211
6850.543913	0.083741	0.377346	8577.138672
6850.544866	0.083939	0.377346	8657.132812
6850.545888	0.083899	0.377346	8742.877930
6850.546768	0.083895	0.377346	8816.706055
6850.547628	0.083892	0.377346	8888.852539
6850.548699	0.083928	0.377346	8978.739258
6850.549637	0.083807	0.377346	9057.350586
6850.550502	0.083939	0.377346	9129.958008
6850.551422	0.083892	0.377346	9207.138672
6851.522051	0.906233	0.406612	449.491516
6851.522964	1.324017	0.406612	1658.319336
6851.523828	1.330616	0.406612	2807.971924
6851.524912	1.298599	0.406612	4215.652832
6851.525912	1.266566	0.406612	5482.218750
6851.526802	1.239078	0.406612	6584.998535
6851.527796	1.209642	0.406612	7787.382812
6851.528855	0.618940	0.406612	8442.840820
6851.529746	0.092157	0.406612	8524.953125
6851.530603	0.083782	0.406612	8596.753906
6851.531698	0.084012	0.406612	8688.747070
6851.532687	0.083859	0.406612	8771.683594
6851.533571	0.083826	0.406612	8845.785156
6851.534567	0.083939	0.406612	8929.388672
6851.535626	0.083914	0.406612	9018.252930
6851.536499	0.083910	0.406612	9091.505859
6851.537381	0.083892	0.406612	9165.498047
6851.538484	0.083943	0.406612	9258.086914
6852.596735	0.885601	0.379993	425.088257
6852.597674	1.324189	0.379993	1668.502075
6852.598566	1.330162	0.379993	2855.006836
6852.599457	1.303125	0.379993	4016.091309
6852.600422	1.272089	0.379993	5243.656738
6852.601377	1.242715	0.379993	6430.449219
6852.602272	1.215710	0.379993	7518.509766
6852.603202	0.965361	0.379993	8416.295898
6852.604164	0.136293	0.379993	8547.409180
6852.605083	0.083730	0.379993	8624.357422
6852.605944	0.083877	0.379993	8696.575195
6852.606883	0.083892	0.379993	8775.349609
6852.607814	0.083888	0.379993	8853.449219
6852.608736	0.083785	0.379993	8930.699219
6852.609607	0.083866	0.379993	9003.746094
6852.610575	0.083881	0.379993	9084.942383
6852.611506	0.083877	0.379993	9163.032227
6852.612370	0.083936	0.379993	9235.552734
6853.586901	0.869418	0.410906	385.152039
6853.587777	1.316635	0.410906	1538.523926
6853.588721	1.331521	0.410906	2795.479492
6853.589652	1.303539	0.410906	4009.074219
6853.590584	1.273868	0.410906	5196.319336
6853.591446	1.245527	0.410906	6269.963867
6853.592486	1.215103	0.410906	7533.670410
6853.593390	0.988151	0.410906	8426.958984
6853.594269	0.155372	0.410906	8563.531250
6853.595266	0.083928	0.410906	8647.208008
6853.596188	0.083881	0.410906	8724.545898
6853.597114	0.083804	0.410906	8802.148437
6853.597987	0.083906	0.410906	8875.398437
6853.598940	0.083870	0.410906	8955.326172
6853.599882	0.083851	0.410906	9034.314453
6853.600765	0.083877	0.410906	9108.377930
6853.601705	0.083859	0.410906	9187.205078
6853.602673	0.083895	0.410906	9268.416016
6854.659020	0.874980	0.375807	384.116425
6854.659900	1.316704	0.375807	1542.816162
6854.660768	1.331796	0.375807	2698.814941
6854.661871	1.300763	0.375807	4133.556641
6854.662786	1.271173	0.375807	5296.680176
6854.663670	1.244000	0.375807	6396.376465
6854.664679	1.213909	0.375807	7621.210449
6854.665697	0.812791	0.375807	8448.630859
6854.666587	0.108420	0.375807	8545.125000
6854.667449	0.083778	0.375807	8617.341797
6854.668535	0.083910	0.375807	8708.467773
6854.669435	0.083892	0.375807	8783.970703
6854.670303	0.083906	0.375807	8856.801758
6854.671306	0.083972	0.375807	8941.025391
6854.672307	0.083877	0.375807	9024.986328
6854.673194	0.083895	0.375807	9099.401367
6854.674052	0.083906	0.375807	9171.392578
6854.675116	0.083961	0.375807	9260.727539
6855.648698	0.850430	0.408163	360.582184
6855.649609	1.315016	0.408163	1558.561646
6855.650578	1.330525	0.408163	2847.840332
6855.651512	1.302524	0.408163	4064.397949
6855.652394	1.274059	0.408163	5188.117676
6855.653357	1.244033	0.408163	6386.121582
6855.654296	1.215242	0.408163	7527.233398
6855.655230	0.981658	0.408163	8444.101562
6855.656093	0.153369	0.408163	8576.458984
6855.657064	0.083738	0.408163	8657.768555
6855.658019	0.083895	0.408163	8737.888672
6855.658894	0.083859	0.408163	8811.264648
6855.659805	0.083859	0.408163	8887.660156
6855.660753	0.083844	0.408163	8967.144531
6855.661679	0.083822	0.408163	9044.763672
6855.662557	0.083848	0.408163	9118.381836
6855.663515	0.083796	0.408163	9198.659180
6855.664472	0.083906	0.408163	9278.957031
6856.723456	0.919680	0.372387	445.125214
6856.724337	1.320758	0.372387	1608.713135
6856.725199	1.331543	0.372387	2756.503174
6856.726154	1.303352	0.372387	4001.204346
6856.727122	1.272927	0.372387	5233.397949
6856.728019	1.245066	0.372387	6350.222168
6856.728933	1.217505	0.372387	7463.021484
6856.729907	0.993094	0.372387	8430.295898
6856.730838	0.141310	0.372387	8561.855469
6856.731716	0.083771	0.372387	8635.406250
6856.732674	0.083888	0.372387	8715.770508
6856.733606	0.083848	0.372387	8793.916992
6856.734536	0.083851	0.372387	8871.898437
6856.735395	0.083800	0.372387	8943.882812
6856.736361	0.083903	0.372387	9024.932617
6856.737299	0.083822	0.372387	9103.557617
6856.738183	0.083899	0.372387	9177.724609
6856.739101	0.083888	0.372387	9254.733398
6857.710520	0.843702	0.398193	355.198700
6857.711552	1.322706	0.398193	1720.231689
6857.712472	1.328269	0.398193	2942.239258
6857.713397	1.300228	0.398193	4144.950195
6857.714267	1.271279	0.398193	5250.963379
6857.715319	1.239990	0.398193	6555.433105
6857.716204	1.213253	0.398193	7629.162109
6857.717075	0.964244	0.398193	8469.018555
6857.718071	0.137292	0.398193	8605.761719
6857.718991	0.083719	0.398193	8682.783203
6857.719903	0.083903	0.398193	8759.302734
6857.720779	0.083917	0.398193	8832.814453
6857.721800	0.083895	0.398193	8918.471680
6857.722698	0.083936	0.398193	8993.845703
6857.723573	0.083895	0.398193	9067.253906
6857.724516	0.084012	0.398193	9146.477539
6857.725501	0.083899	0.398193	9229.118164
6857.726420	0.083859	0.398193	9306.184570
6858.789823	0.861614	0.376021	367.047455
6858.790907	1.327104	0.376021	1805.628662
6858.791907	1.324849	0.376021	3130.477051
6858.792791	1.297170	0.376021	4277.175781
6858.793793	1.266002	0.376021	5545.709961
6858.794838	1.233842	0.376021	6835.074219
6858.795734	1.206526	0.376021	7916.121582
6858.796601	0.684419	0.376021	8509.512695
6858.797710	0.089806	0.376021	8609.107422
6858.798677	0.083818	0.376021	8690.160156
6858.799535	0.083899	0.376021	8762.145508
6858.800582	0.083884	0.376021	8849.972656
6858.801633	0.083884	0.376021	8938.134766
6858.802509	0.083804	0.376021	9011.546875
6858.803434	0.083829	0.376021	9089.088867
6858.804511	0.083884	0.376021	9179.432617
6858.805453	0.083774	0.376021	9258.347656
6858.806324	0.083782	0.376021	9331.321289
6859.768255	0.851488	0.399796	362.733917
6859.769160	1.313881	0.399796	1551.795776
6859.770110	1.330115	0.399796	2815.404785
6859.771070	1.301803	0.399796	4065.135742
6859.771965	1.273433	0.399796	5204.857910
6859.772882	1.244539	0.399796	6346.099609
6859.773852	1.215703	0.399796	7525.331543
6859.774781	0.983295	0.399796	8438.812500
6859.775650	0.153365	0.399796	8572.086914
6859.776619	0.083712	0.399796	8653.204102
6859.777567	0.083881	0.399796	8732.722656
6859.778452	0.083840	0.399796	8806.920898
6859.779321	0.083877	0.399796	8879.809570
6859.780273	0.083870	0.399796	8959.653320
6859.781202	0.083855	0.399796	9037.554687
6859.782074	0.083822	0.399796	9110.647461
6859.783053	0.083785	0.399796	9192.673828
6859.784009	0.083829	0.399796	9272.814453
6860.854205	0.845438	0.373185	356.774933
6860.855180	1.320623	0.373185	1644.381958
6860.856121	1.329327	0.373185	2895.278809
6860.857044	1.301755	0.373185	4096.798828
6860.857911	1.273143	0.373185	5200.614258
6860.858887	1.243524	0.373185	6414.293945
6860.859841	1.215070	0.373185	7573.470215
6860.860716	1.000009	0.373185	8448.477539
6860.861642	0.153856	0.373185	8590.948242
6860.862598	0.083679	0.373185	8670.945312
6860.863526	0.083881	0.373185	8748.786133
6860.864401	0.083844	0.373185	8822.149414
6860.865345	0.083855	0.373185	8901.308594
6860.866285	0.083917	0.373185	8980.190430
6860.867178	0.083899	0.373185	9055.112305
6860.868305	0.083822	0.373185	9149.580078
6860.869246	0.083895	0.373185	9228.525391
6860.870164	0.083903	0.373185	9305.547852
6861.825981	0.847969	0.398503	358.690796
6861.826890	1.314188	0.398503	1553.287964
6861.827961	1.328383	0.398503	2975.985840
6861.828849	1.300474	0.398503	4130.806641
6861.829719	1.272696	0.398503	5238.052734
6861.830764	1.240613	0.398503	6534.493164
6861.831743	1.211250	0.398503	7720.307129
6861.832625	0.874772	0.398503	8491.855469
6861.833516	0.122659	0.398503	8601.144531
6861.834621	0.083881	0.398503	8693.833008
6861.835492	0.083888	0.398503	8766.899414
6861.836356	0.083859	0.398503	8839.353516
6861.837414	0.083910	0.398503	8928.129883
6861.838388	0.083961	0.398503	9009.908203
6861.839261	0.083910	0.398503	9083.161133
6861.840141	0.084038	0.398503	9157.114258
6861.841258	0.083899	0.398503	9250.829102
6861.842151	0.083888	0.398503	9325.741211
6862.920709	0.909785	0.366462	452.163208
6862.921660	1.326540	0.366462	1713.703247
6862.922528	1.330060	0.366462	2868.195068
6862.923576	1.298320	0.366462	4228.834961
6862.924600	1.265801	0.366462	5525.014648
6862.925491	1.238174	0.366462	6628.227539
6862.926447	1.209924	0.366462	7784.915039
6862.927508	0.616901	0.366462	8439.446289
6862.928435	0.090857	0.366462	8523.670898
6862.929293	0.083822	0.366462	8595.589844
6862.930349	0.083961	0.366462	8684.252930
6862.931363	0.083870	0.366462	8769.296875
6862.932240	0.083895	0.366462	8842.873047
6862.933211	0.083939	0.366462	8924.377930
6862.934285	0.083943	0.366462	9014.532227
6862.935188	0.083833	0.366462	9090.233398
6862.936054	0.083954	0.366462	9162.937500
6862.937110	0.083961	0.366462	9251.600586
6863.887285	0.844069	0.402431	354.508820
6863.888204	1.316642	0.402431	1564.502563
6863.889181	1.330111	0.402431	2864.020996
6863.890113	1.302089	0.402431	4077.567627
6863.890980	1.273876	0.402431	5182.018066
6863.891957	1.244165	0.402431	6397.567383
6863.892918	1.215604	0.402431	7565.763184
6863.893810	0.993831	0.402431	8452.259766
6863.894717	0.156823	0.402431	8594.498047
6863.895645	0.083778	0.402431	8672.244141
6863.896607	0.083932	0.402431	8752.986328
6863.897497	0.083862	0.402431	8827.624023
6863.898413	0.083888	0.402431	8904.465820
6863.899371	0.083851	0.402431	8984.794922
6863.900300	0.083837	0.402431	9062.678711
6863.901165	0.083881	0.402431	9135.235352
6863.902130	0.083903	0.402431	9216.201172
6863.903048	0.083818	0.402431	9293.146484
6864.986042	0.852858	0.367666	361.611633
6864.986916	1.314221	0.367666	1510.240967
6864.987863	1.331583	0.367666	2771.250488
6864.988818	1.303579	0.367666	4016.168457
6864.989744	1.274092	0.367666	5195.977539
6864.990612	1.246373	0.367666	6277.829590
6864.991621	1.217029	0.367666	7505.811523
6864.992552	1.002766	0.367666	8439.386719
6864.993427	0.161382	0.367666	8580.595703
6864.994452	0.083771	0.367666	8666.460937
6864.995324	0.083822	0.367666	8739.553711
6864.996230	0.083910	0.367666	8815.576172
6864.997106	0.083877	0.367666	8889.052734
6864.998075	0.083925	0.367666	8970.375977
6864.998998	0.083906	0.367666	9047.821289
6864.999892	0.083925	0.367666	9122.849609
6865.000755	0.083884	0.367666	9195.242187
6865.001750	0.083870	0.367666	9278.692383
6865.948124	0.872113	0.388662	392.450867
6865.948988	1.316433	0.388662	1529.849121
6865.950047	1.327991	0.388662	2936.191406
6865.951091	1.296647	0.388662	4289.890625
6865.951970	1.268163	0.388662	5404.605469
6865.952839	1.240748	0.388662	6482.815430
6865.953919	1.209042	0.388662	7788.580566
6865.954844	0.749238	0.388662	8481.625977
6865.955722	0.102565	0.388662	8571.677734
6865.956684	0.083804	0.388662	8652.296875
6865.957701	0.083987	0.388662	8737.711914
6865.958593	0.083990	0.388662	8812.631836
6865.959455	0.083965	0.388662	8885.009766
6865.960526	0.083917	0.388662	8974.884766
6865.961460	0.083848	0.388662	9053.198242
6865.962329	0.083895	0.388662	9126.103516
6865.963285	0.083987	0.388662	9206.394531
6865.964334	0.083950	0.388662	9294.458008
6867.050022	0.935251	0.379542	484.460266
6867.051040	1.331063	0.379542	1839.482666
6867.051917	1.327500	0.379542	3003.700195
6867.052912	1.297082	0.379542	4294.297363
6867.053978	1.263171	0.379542	5640.837891
6867.054881	1.235024	0.379542	6756.064941
6867.055744	1.207969	0.379542	7798.541992
6867.056848	0.571439	0.379542	8429.411133
6867.057821	0.087634	0.379542	8514.679687
6867.058691	0.083855	0.379542	8587.633789
6867.059696	0.084056	0.379542	8672.110352
6867.060751	0.083928	0.379542	8760.654297
6867.061637	0.083921	0.379542	8835.007812
6867.062525	0.083943	0.379542	8909.548828
6867.063618	0.083983	0.379542	9001.342773
6867.064573	0.083906	0.379542	9081.473633
6867.065441	0.083899	0.379542	9154.297852
6867.066452	0.083976	0.379542	9239.197266
6868.010451	0.872699	0.378655	385.732941
6868.011318	1.316034	0.378655	1526.734375
6868.012302	1.330536	0.378655	2835.981689
6868.013204	1.303103	0.378655	4011.380615
6868.014094	1.274952	0.378655	5146.087891
6868.015011	1.246249	0.378655	6288.897949
6868.015968	1.217681	0.378655	7454.218262
6868.016890	1.045983	0.378655	8418.614258
6868.017766	0.176276	0.378655	8573.031250
6868.018722	0.083822	0.378655	8653.165039
6868.019661	0.083818	0.378655	8731.870117
6868.020536	0.083848	0.378655	8805.236328
6868.021590	0.083818	0.378655	8893.581055
6868.022545	0.083848	0.378655	8973.655273
6868.023469	0.083895	0.378655	9051.174805
6868.024326	0.083818	0.378655	9123.006836
6868.025274	0.083862	0.378655	9202.507812
6868.026230	0.083884	0.378655	9282.701172
6869.109702	0.860240	0.377649	371.623871
6869.110569	1.314595	0.377649	1511.377563
6869.111555	1.330734	0.377649	2823.480957
6869.112501	1.302726	0.377649	4055.859375
6869.113394	1.273630	0.377649	5193.210937
6869.114291	1.245886	0.377649	6310.770996
6869.115244	1.216805	0.377649	7470.386719
6869.116180	1.023226	0.377649	8428.126953
6869.117046	0.169633	0.377649	8575.028320
6869.118013	0.083910	0.377649	8656.168945
6869.118971	0.083899	0.377649	8736.543945
6869.119846	0.083811	0.377649	8809.878906
6869.120757	0.083906	0.377649	8886.317383
6869.121717	0.083855	0.377649	8966.818359
6869.122643	0.083800	0.377649	9044.416992
6869.123521	0.083925	0.377649	9118.102539
6869.124457	0.083873	0.377649	9196.608398
6869.125411	0.083888	0.377649	9276.637695
6870.075853	0.867166	0.391820	374.615540
6870.076835	1.318737	0.391820	1669.614990
6870.077774	1.328826	0.391820	2917.382324
6870.078707	1.300723	0.391820	4130.956543
6870.079572	1.272418	0.391820	5231.598145
6870.080605	1.241177	0.391820	6513.733398
6870.081498	1.213715	0.391820	7597.580566
6870.082379	0.970305	0.391820	8452.419922
6870.083338	0.145345	0.391820	8591.806641
6870.084294	0.083771	0.391820	8671.891602
6870.085211	0.083855	0.391820	8748.787109
6870.086084	0.083914	0.391820	8822.043945
6870.087120	0.083881	0.391820	8908.944336
6870.088021	0.083881	0.391820	8984.520508
6870.088894	0.083855	0.391820	9057.725586
6870.089779	0.083939	0.391820	9132.011719
6870.090820	0.083785	0.391820	9219.232422
6870.091711	0.083899	0.391820	9293.986328
6871.171013	0.857750	0.365241	369.690338
6871.171881	1.314763	0.365241	1510.904785
6871.172946	1.328328	0.365241	2925.573730
6871.173953	1.297756	0.365241	4232.414062
6871.174844	1.269489	0.365241	5363.528320
6871.175826	1.239503	0.365241	6580.720703
6871.176887	1.207808	0.365241	7862.204590
6871.177805	0.695098	0.365241	8500.304687
6871.178667	0.098774	0.365241	8585.448242
6871.179768	0.083877	0.365241	8677.796875
6871.180728	0.083906	0.365241	8758.346680
6871.181608	0.083936	0.365241	8832.209961
6871.182629	0.084031	0.365241	8918.005859
6871.183665	0.083969	0.365241	9004.997070
6871.184547	0.083925	0.365241	9079.018555
6871.185411	0.083888	0.365241	9151.498047
6871.186463	0.084016	0.365241	9239.882812
6871.187425	0.083877	0.365241	9320.572266
6872.141819	0.915425	0.389202	449.473602
6872.142757	1.324493	0.389202	1691.848389
6872.143685	1.328943	0.389202	2925.107422
6872.144564	1.301653	0.389202	4069.260254
6872.145529	1.271429	0.389202	5296.189453
6872.146481	1.242481	0.389202	6479.030762
6872.147369	1.215154	0.389202	7558.087402
6872.148254	0.936614	0.389202	8386.990234
6872.149365	0.113328	0.389202	8512.897461
6872.150381	0.083833	0.389202	8598.072266
6872.151275	0.083848	0.389202	8673.032227
6872.152224	0.083939	0.389202	8752.690430
6872.153257	0.083965	0.389202	8839.425781
6872.154181	0.083892	0.389202	8916.941406
6872.155042	0.083906	0.389202	8989.184570
6872.156113	0.083950	0.389202	9079.095703
6872.157132	0.083917	0.389202	9164.607422
6872.158004	0.083877	0.389202	9237.748047
6873.232330	0.866796	0.369342	375.322510
6873.233205	1.315576	0.369342	1526.451660
6873.234134	1.331148	0.369342	2763.087891
6873.235091	1.303381	0.369342	4010.423828
6873.236018	1.273945	0.369342	5191.371094
6873.236895	1.246194	0.369342	6284.283203
6873.237880	1.217109	0.369342	7483.135742
6873.238844	0.985155	0.369342	8432.825195
6873.239736	0.147957	0.369342	8564.802734
6873.240640	0.083774	0.369342	8640.535156
6873.241579	0.083936	0.369342	8719.350586
6873.242517	0.083888	0.369342	8798.037109
6873.243391	0.083881	0.369342	8871.348633
6873.244300	0.083895	0.369342	8947.609375
6873.245248	0.083906	0.369342	9027.152344
6873.246176	0.083914	0.369342	9105.024414
6873.247053	0.083928	0.369342	9178.629883
6873.248023	0.083899	0.369342	9260.011719
6874.206738	0.914352	0.390305	455.347198
6874.207633	1.322798	0.390305	1639.251343
6874.208512	1.330778	0.390305	2809.004883
6874.209408	1.303213	0.390305	3976.683594
6874.210439	1.271224	0.390305	5287.315918
6874.211361	1.242554	0.390305	6432.950195
6874.212250	1.215897	0.390305	7513.882812
6874.213273	0.894375	0.390305	8428.828125
6874.214174	0.123387	0.390305	8540.000000
6874.215098	0.083749	0.390305	8617.383789
6874.215959	0.083925	0.390305	8689.642578
6874.216997	0.083873	0.390305	8776.703125
6874.217872	0.083873	0.390305	8850.091797
6874.218747	0.083873	0.390305	8923.480469
6874.219725	0.083914	0.390305	9005.547852
6874.220661	0.083892	0.390305	9084.070312
6874.221579	0.083866	0.390305	9161.059570
6874.222441	0.083877	0.390305	9233.361328
6875.295248	0.897678	0.363759	457.815887
6875.296302	1.330236	0.363759	1859.884277
6875.297236	1.325391	0.363759	3097.799316
6875.298113	1.297126	0.363759	4235.378906
6875.299187	1.263695	0.363759	5592.587402
6875.300192	1.232589	0.363759	6831.339355
6875.301091	1.205859	0.363759	7915.407227
6875.302080	0.591497	0.363759	8500.397461
6875.303129	0.087308	0.363759	8591.984375
6875.304040	0.083866	0.363759	8668.386719
6875.304900	0.083939	0.363759	8740.574219
6875.305971	0.083954	0.363759	8830.489258
6875.306954	0.083859	0.363759	8912.921875
6875.307842	0.083917	0.363759	8987.440430
6875.308842	0.084042	0.363759	9071.482422
6875.309888	0.083979	0.363759	9159.325195
6875.310768	0.083917	0.363759	9233.171875
6875.311626	0.083917	0.363759	9305.172852
6876.270527	0.863503	0.389077	368.715973
6876.271512	1.321494	0.389077	1670.387573
6876.272429	1.329672	0.389077	2889.696289
6876.273310	1.303129	0.389077	4037.752441
6876.274224	1.273748	0.389077	5201.958008
6876.275193	1.243737	0.389077	6407.138672
6876.276128	1.215600	0.389077	7543.725098
6876.277015	1.015649	0.389077	8444.606445
6876.277948	0.150703	0.389077	8585.212891
6876.278894	0.083719	0.389077	8664.411133
6876.279818	0.083840	0.389077	8741.879883
6876.280678	0.083851	0.389077	8813.992187
6876.281643	0.083906	0.389077	8894.961914
6876.282600	0.083844	0.389077	8975.200195
6876.283487	0.083837	0.389077	9049.563477
6876.284401	0.083862	0.389077	9126.213867
6876.285304	0.083903	0.389077	9201.977539
6876.286250	0.083848	0.389077	9281.297852
6877.356470	0.865181	0.365837	364.241058
6877.357456	1.322864	0.365837	1668.584717
6877.358371	1.329635	0.365837	2885.200684
6877.359257	1.303103	0.365837	4039.750000
6877.360177	1.273759	0.365837	5211.607910
6877.361147	1.243689	0.365837	6417.986328
6877.362065	1.215868	0.365837	7534.153320
6877.362935	1.035275	0.365837	8434.842773
6877.363914	0.155618	0.365837	8587.192383
6877.364844	0.083716	0.365837	8665.047852
6877.365757	0.083866	0.365837	8741.617187
6877.366614	0.083811	0.365837	8813.443359
6877.367574	0.083866	0.365837	8893.955078
6877.368526	0.083881	0.365837	8973.809570
6877.369419	0.083877	0.365837	9048.711914
6877.370333	0.083855	0.365837	9125.355469
6877.371299	0.083892	0.365837	9206.394531
6877.372194	0.083822	0.365837	9281.415039
6878.333410	0.871615	0.390374	393.098358
6878.334277	1.316352	0.390374	1534.375977
6878.335148	1.332612	0.390374	2695.081299
6878.336220	1.301609	0.390374	4090.405762
6878.337141	1.271748	0.390374	5261.685547
6878.338022	1.244286	0.390374	6357.901367
6878.338892	1.216853	0.390374	7416.563477
6878.339961	0.927653	0.390374	8408.223633
6878.340858	0.128906	0.390374	8523.852539
6878.341733	0.083756	0.390374	8597.138672
6878.342744	0.083932	0.390374	8681.994141
6878.343670	0.083870	0.390374	8759.657227
6878.344587	0.083888	0.390374	8836.582031
6878.345449	0.083840	0.390374	8908.852539
6878.346491	0.083954	0.390374	8996.332031
6878.347369	0.083855	0.390374	9069.957031
6878.348243	0.083837	0.390374	9143.230469
6878.349212	0.083939	0.390374	9224.567383
6879.418907	0.923573	0.355601	466.404388
6879.419924	1.329913	0.355601	1818.926270
6879.420805	1.327496	0.355601	2988.450684
6879.421798	1.296812	0.355601	4276.184570
6879.422856	1.263585	0.355601	5613.057617
6879.423753	1.235515	0.355601	6721.314453
6879.424647	1.207994	0.355601	7801.261230
6879.425762	0.540469	0.355601	8403.883789
6879.426698	0.087854	0.355601	8486.115234
6879.427569	0.083767	0.355601	8559.076172
6879.428601	0.083906	0.355601	8645.666992
6879.429627	0.083829	0.355601	8731.675781
6879.430519	0.083895	0.355601	8806.510742
6879.431462	0.083943	0.355601	8885.668945
6879.432512	0.083936	0.355601	8973.800781
6879.433441	0.083895	0.355601	9051.739258
6879.434305	0.083903	0.355601	9124.231445
6879.435368	0.083972	0.355601	9213.494141
6880.397826	0.911851	0.396114	444.071259
6880.398759	1.323695	0.396114	1679.078735
6880.399635	1.330210	0.396114	2844.342773
6880.400564	1.302162	0.396114	4054.051270
6880.401531	1.271422	0.396114	5283.516602
6880.402464	1.242660	0.396114	6442.918457
6880.403344	1.215780	0.396114	7512.804687
6880.404304	0.963655	0.396114	8437.913086
6880.405229	0.131279	0.396114	8559.346680
6880.406150	0.083760	0.396114	8636.489258
6880.407011	0.083899	0.396114	8708.726562
6880.407986	0.083906	0.396114	8790.535156
6880.408932	0.083961	0.396114	8869.962891
6880.409812	0.083925	0.396114	8943.816406
6880.410719	0.083954	0.396114	9019.962891
6880.411645	0.083903	0.396114	9097.656250
6880.412575	0.083917	0.396114	9175.699219
6880.413437	0.083954	0.396114	9248.067383
6881.482684	0.855026	0.353072	364.240936
6881.483654	1.320817	0.353072	1645.433105
6881.484598	1.329631	0.353072	2900.604980
6881.485479	1.302927	0.353072	4048.483887
6881.486395	1.274040	0.353072	5215.504883
6881.487353	1.244242	0.353072	6407.488770
6881.488291	1.215857	0.353072	7547.962402
6881.489158	1.033385	0.353072	8443.907227
6881.490081	0.155786	0.353072	8587.698242
6881.491031	0.083709	0.353072	8667.221680
6881.491920	0.083877	0.353072	8741.788086
6881.492835	0.083914	0.353072	8818.569336
6881.493789	0.083906	0.353072	8898.616211
6881.494698	0.083939	0.353072	8974.916992
6881.495571	0.083965	0.353072	9048.218750
6881.496549	0.083881	0.353072	9130.253906
6881.497484	0.083895	0.353072	9208.696289
6881.498405	0.083906	0.353072	9285.973633
6882.460108	0.857234	0.388791	375.468445
6882.460977	1.314705	0.388791	1517.946777
6882.461867	1.331587	0.388791	2703.059082
6882.462900	1.302426	0.388791	4048.464600
6882.463782	1.273755	0.388791	5171.916504
6882.464664	1.246611	0.388791	6271.427734
6882.465672	1.216575	0.388791	7497.734863
6882.466601	0.983646	0.388791	8411.541992
6882.467529	0.143719	0.388791	8544.914062
6882.468393	0.083745	0.388791	8617.269531
6882.469436	0.083774	0.388791	8704.646484
6882.470326	0.083840	0.388791	8779.264648
6882.471198	0.083873	0.388791	8852.402344
6882.472185	0.083932	0.388791	8935.243164
6882.473139	0.083862	0.388791	9015.248047
6882.474061	0.083961	0.388791	9092.660156
6882.474922	0.083947	0.388791	9164.938477
6882.475953	0.083979	0.388791	9251.521484
6883.547649	0.886469	0.346582	440.574860
6883.548723	1.329503	0.346582	1868.461304
6883.549672	1.324808	0.346582	3125.704590
6883.550540	1.297053	0.346582	4251.546875
6883.551605	1.263908	0.346582	5597.608398
6883.552634	1.232186	0.346582	6865.527832
6883.553512	1.205793	0.346582	7924.214355
6883.554486	0.590387	0.346582	8499.250977
6883.555557	0.087177	0.346582	8592.617187
6883.556463	0.083815	0.346582	8668.553711
6883.557328	0.083826	0.346582	8741.062500
6883.558391	0.083987	0.346582	8830.340820
6883.559390	0.083910	0.346582	8914.166992
6883.560278	0.083928	0.346582	8988.695312
6883.561265	0.083906	0.346582	9071.510742
6883.562321	0.083848	0.346582	9160.053711
6883.563226	0.083884	0.346582	9235.968750
6883.564087	0.083921	0.346582	9308.224609
6884.522937	0.860460	0.386628	364.835114
6884.523921	1.321512	0.386628	1665.203369
6884.524845	1.329441	0.386628	2893.606934
6884.525738	1.302404	0.386628	4056.653320
6884.526656	1.273682	0.386628	5225.893066
6884.527617	1.243828	0.386628	6421.211914
6884.528549	1.215546	0.386628	7554.100586
6884.529419	1.028705	0.386628	8449.074219
6884.530372	0.147535	0.386628	8589.675781
6884.531315	0.083774	0.386628	8668.674805
6884.532216	0.083866	0.386628	8744.238281
6884.533092	0.083877	0.386628	8817.714844
6884.534041	0.083796	0.386628	8897.237305
6884.534996	0.083837	0.386628	8977.301758
6884.535888	0.083884	0.386628	9052.126953
6884.536803	0.083822	0.386628	9128.824219
6884.537732	0.083811	0.386628	9206.684570
6884.538663	0.083932	0.386628	9284.825195
6885.611450	0.845933	0.349740	356.983582
6885.612401	1.317620	0.349740	1610.039795
6885.613320	1.330367	0.349740	2832.647461
6885.614248	1.302942	0.349740	4041.777588
6885.615119	1.274579	0.349740	5151.935547
6885.616115	1.244410	0.349740	6391.368164
6885.617045	1.216311	0.349740	7522.537109
6885.617924	1.037769	0.349740	8434.735352
6885.618823	0.175250	0.349740	8592.285156
6885.619774	0.083774	0.349740	8671.955078
6885.620735	0.083895	0.349740	8752.578125
6885.621605	0.083884	0.349740	8825.557617
6885.622516	0.083873	0.349740	8901.965820
6885.623479	0.083906	0.349740	8982.767578
6885.624405	0.083862	0.349740	9060.423828
6885.625285	0.083826	0.349740	9134.190430
6885.626266	0.083921	0.349740	9216.516602
6885.627185	0.083884	0.349740	9293.606445
6886.584246	0.863412	0.379429	362.632965
6886.585359	1.327328	0.379429	1839.948975
6886.586247	1.327042	0.379429	3018.362305
6886.587125	1.300118	0.379429	4159.866211
6886.588119	1.268503	0.379429	5420.758789
6886.589135	1.236874	0.379429	6677.422363
6886.590029	1.210177	0.379429	7759.320312
6886.590897	0.822682	0.379429	8473.408203
6886.592016	0.095090	0.379429	8579.814453
6886.592933	0.083826	0.379429	8656.682617
6886.593810	0.083936	0.379429	8730.293945
6886.594817	0.083899	0.379429	8814.780273
6886.595806	0.083925	0.379429	8897.781250
6886.596701	0.083862	0.379429	8972.837891
6886.597560	0.083932	0.379429	9044.935547
6886.598641	0.083892	0.379429	9135.622070
6886.599536	0.083899	0.379429	9210.711914
6886.600401	0.083932	0.379429	9283.313477
6887.675852	0.860720	0.350896	373.552582
6887.676721	1.315243	0.350896	1516.498657
6887.677751	1.329089	0.350896	2885.460449
6887.678788	1.297778	0.350896	4231.256836
6887.679682	1.269049	0.350896	5365.786621
6887.680626	1.240177	0.350896	6536.513672
6887.681696	1.208082	0.350896	7829.161621
6887.682635	0.697401	0.350896	8484.021484
6887.683501	0.098877	0.350896	8569.648437
6887.684573	0.083892	0.350896	8659.580078
6887.685572	0.083888	0.350896	8743.383789
6887.686465	0.083928	0.350896	8818.332031
6887.687429	0.083892	0.350896	8899.203125
6887.688483	0.083906	0.350896	8987.640625
6887.689393	0.083870	0.350896	9063.961914
6887.690254	0.083917	0.350896	9136.214844
6887.691338	0.083998	0.350896	9227.268555
6887.692334	0.083903	0.350896	9310.835937
6888.647642	0.868037	0.384996	390.616699
6888.648511	1.316342	0.384996	1534.517578
6888.649400	1.331931	0.384996	2718.604492
6888.650359	1.303696	0.384996	3968.849121
6888.651283	1.274678	0.384996	5146.651367
6888.652147	1.247106	0.384996	6224.150879
6888.653128	1.218003	0.384996	7419.011719
6888.654087	1.028844	0.384996	8405.672852
6888.654988	0.161949	0.384996	8551.588867
6888.655901	0.083848	0.384996	8628.141602
6888.656868	0.083844	0.384996	8709.218750
6888.657782	0.083778	0.384996	8785.791992
6888.658654	0.083892	0.384996	8858.945312
6888.659562	0.083859	0.384996	8935.088867
6888.660524	0.083866	0.384996	9015.767578
6888.661449	0.083855	0.384996	9093.333008
6888.662327	0.083914	0.384996	9167.008789
6888.663295	0.083925	0.384996	9248.248047
6889.742309	0.874069	0.347029	395.953064
6889.743192	1.317118	0.347029	1558.968018
6889.744063	1.332374	0.347029	2719.465820
6889.744965	1.305630	0.347029	3897.144043
6889.745954	1.274070	0.347029	5157.199219
6889.746886	1.245194	0.347029	6317.720215
6889.747782	1.218153	0.347029	7409.185547
6889.748686	1.076719	0.347029	8382.539062
6889.749654	0.172676	0.347029	8549.689453
6889.750574	0.083822	0.347029	8626.805664
6889.751435	0.083892	0.347029	8699.036133
6889.752384	0.083910	0.347029	8778.666992
6889.753323	0.083914	0.347029	8857.461914
6889.754256	0.083884	0.347029	8935.725586
6889.755114	0.083870	0.347029	9007.685547
6889.756067	0.083910	0.347029	9087.651367
6889.757028	0.083903	0.347029	9168.282227
6889.757918	0.083892	0.347029	9242.945312
6890.707381	0.851726	0.379578	356.873230
6890.708449	1.326552	0.379578	1773.630371
6890.709367	1.327599	0.379578	2992.366211
6890.710245	1.300576	0.379578	4134.271973
6890.711180	1.270818	0.379578	5322.486816
6890.712180	1.240067	0.379578	6562.553711
6890.713108	1.212107	0.379578	7687.388672
6890.713978	0.930524	0.379578	8496.944336
6890.715060	0.108003	0.379578	8613.803711
6890.715936	0.083785	0.379578	8687.200195
6890.716806	0.083851	0.379578	8760.150391
6890.717690	0.083807	0.379578	8834.236328
6890.718718	0.083815	0.379578	8920.397461
6890.719610	0.083866	0.379578	8995.206055
6890.720495	0.083881	0.379578	9069.440430
6890.721477	0.083877	0.379578	9151.807617
6890.722404	0.083906	0.379578	9229.588867
6890.723330	0.083862	0.379578	9307.245117
6891.806657	0.877024	0.345414	376.243256
6891.807764	1.328698	0.345414	1847.111450
6891.808728	1.325427	0.345414	3124.823242
6891.809598	1.297928	0.345414	4254.020996
6891.810653	1.264779	0.345414	5588.362793
6891.811693	1.232809	0.345414	6870.483887
6891.812574	1.206185	0.345414	7933.132812
6891.813526	0.636914	0.345414	8539.474609
6891.814595	0.088162	0.345414	8633.719727
6891.815526	0.083859	0.345414	8711.791992
6891.816384	0.083958	0.345414	8783.827148
6891.817405	0.083950	0.345414	8869.540039
6891.818449	0.083884	0.345414	8957.115234
6891.819325	0.083884	0.345414	9030.597656
6891.820281	0.083939	0.345414	9110.843750
6891.821329	0.083910	0.345414	9198.781250
6891.822255	0.083877	0.345414	9276.451172
6891.823138	0.083936	0.345414	9350.566406
6892.768259	0.905416	0.375952	446.370209
6892.769137	1.320425	0.375952	1605.703247
6892.770070	1.329866	0.375952	2846.467773
6892.771148	1.297537	0.375952	4245.212402
6892.772090	1.267515	0.375952	5439.211426
6892.772954	1.240411	0.375952	6510.926758
6892.773992	1.209371	0.375952	7766.253906
6892.775037	0.641635	0.375952	8436.761719
6892.775920	0.093805	0.375952	8519.591797
6892.776893	0.083774	0.375952	8601.104492
6892.777941	0.083921	0.375952	8689.053711
6892.778851	0.083873	0.375952	8765.377930
6892.779718	0.083892	0.375952	8838.112305
6892.780807	0.083939	0.375952	8929.522461
6892.781805	0.083884	0.375952	9013.239258
6892.782693	0.083906	0.375952	9087.748047
6892.783670	0.083983	0.375952	9169.799805
6892.784720	0.083954	0.375952	9257.951172
6893.874111	0.852089	0.345297	364.693939
6893.874978	1.313859	0.345297	1503.809448
6893.875957	1.331356	0.345297	2807.207031
6893.876888	1.303737	0.345297	4020.985840
6893.877768	1.275117	0.345297	5143.088867
6893.878653	1.247373	0.345297	6247.014160
6893.879588	1.218534	0.345297	7386.343262
6893.880549	1.035945	0.345297	8381.886719
6893.881445	0.176426	0.345297	8539.963867
6893.882360	0.083954	0.345297	8616.781250
6893.883334	0.083892	0.345297	8698.491211
6893.884253	0.083840	0.345297	8775.540039
6893.885133	0.083877	0.345297	8849.351562
6893.886083	0.083822	0.345297	8928.982422
6893.887024	0.083826	0.345297	9007.862305
6893.887951	0.083873	0.345297	9085.613281
6893.888809	0.083844	0.345297	9157.551758
6893.889780	0.083851	0.345297	9238.971680
6894.828520	0.868839	0.367300	406.616699
6894.829406	1.318751	0.367300	1575.030273
6894.830283	1.331924	0.367300	2743.127441
6894.831196	1.305381	0.367300	3934.940186
6894.832152	1.274535	0.367300	5153.395508
6894.833097	1.245373	0.367300	6330.273437
6894.833973	1.218556	0.367300	7397.728516
6894.834894	1.056280	0.367300	8370.562500
6894.835866	0.174844	0.367300	8540.510742
6894.836796	0.083793	0.367300	8618.437500
6894.837673	0.083837	0.367300	8691.961914
6894.838641	0.083866	0.367300	8773.144531
6894.839589	0.083888	0.367300	8852.669922
6894.840475	0.083859	0.367300	8926.968750
6894.841352	0.083859	0.367300	9000.512695
6894.842310	0.083800	0.367300	9080.792969
6894.843264	0.083822	0.367300	9160.758789
6894.844136	0.083866	0.367300	9233.889648
6895.941181	0.950878	0.344737	519.179199
6895.942064	1.325101	0.344737	1689.243652
6895.942937	1.330386	0.344737	2850.670410
6895.943819	1.302685	0.344737	3999.639160
6895.944884	1.269939	0.344737	5352.124023
6895.945765	1.242228	0.344737	6446.526855
6895.946642	1.216088	0.344737	7513.035645
6895.947640	0.904926	0.344737	8416.151367
6895.948581	0.120967	0.344737	8529.981445
6895.949503	0.083767	0.344737	8607.214844
6895.950363	0.083910	0.344737	8679.376953
6895.951412	0.083873	0.344737	8767.360352
6895.952295	0.083917	0.344737	8841.458984
6895.953169	0.083994	0.344737	8914.870117
6895.954156	0.083939	0.344737	8997.717773
6895.955110	0.083954	0.344737	9077.809570
6895.956023	0.083899	0.344737	9154.409180
6895.956884	0.083950	0.344737	9226.690430
6896.889896	0.926949	0.371916	494.990997
6896.890968	1.331451	0.371916	1922.306885
6896.891882	1.324603	0.371916	3132.994141
6896.892751	1.296116	0.371916	4259.318359
6896.893857	1.261970	0.371916	5655.057617
6896.894834	1.232036	0.371916	6858.756836
6896.895719	1.205610	0.371916	7925.722168
6896.896756	0.549789	0.371916	8495.853516
6896.897796	0.086821	0.371916	8586.147461
6896.898668	0.083833	0.371916	8659.250000
6896.899557	0.083829	0.371916	8733.774414
6896.900645	0.083954	0.371916	8825.116211
6896.901599	0.083826	0.371916	8905.085937
6896.902470	0.083782	0.371916	8978.059570
6896.903373	0.083870	0.371916	9053.793945
6896.904466	0.083921	0.371916	9145.519531
6896.905343	0.083807	0.371916	9219.018555
6896.906210	0.083928	0.371916	9291.784180
6898.005945	0.858171	0.344576	363.006470
6898.007015	1.325980	0.344576	1781.805298
6898.008032	1.324783	0.344576	3129.109375
6898.008915	1.296925	0.344576	4274.293945
6898.009916	1.265284	0.344576	5540.843750
6898.010989	1.232831	0.344576	6863.671387
6898.011885	1.205449	0.344576	7943.753906
6898.012787	0.637819	0.344576	8519.066406
6898.013870	0.087982	0.344576	8614.351562
6898.014821	0.083767	0.344576	8694.013672
6898.015691	0.083826	0.344576	8766.942383
6898.016706	0.083928	0.344576	8852.129883
6898.017737	0.083906	0.344576	8938.637695
6898.018628	0.083851	0.344576	9013.349609
6898.019551	0.083888	0.344576	9090.778320
6898.020622	0.083881	0.344576	9180.614258
6898.021570	0.083815	0.344576	9260.070312
6898.022433	0.083840	0.344576	9332.424805
6898.951663	0.877053	0.365660	418.354370
6898.952613	1.323164	0.365660	1675.360229
6898.953548	1.328943	0.365660	2917.921875
6898.954426	1.302191	0.365660	4061.245605
6898.955359	1.271851	0.365660	5247.882324
6898.956304	1.242312	0.365660	6421.867187
6898.957230	1.214901	0.365660	7546.865723
6898.958107	0.983624	0.365660	8409.503906
6898.959091	0.136890	0.365660	8544.203125
6898.960051	0.083782	0.365660	8624.633789
6898.960939	0.083884	0.365660	8699.123047
6898.961839	0.083804	0.365660	8774.546875
6898.962773	0.083829	0.365660	8852.843750
6898.963699	0.083965	0.365660	8930.594727
6898.964560	0.083848	0.365660	9002.787109
6898.965533	0.083862	0.365660	9084.384766
6898.966471	0.083818	0.365660	9163.006836
6898.967362	0.083972	0.365660	9237.826172
6900.069338	0.872534	0.347859	387.405182
6900.070213	1.316426	0.347859	1539.277710
6900.071123	1.331657	0.347859	2751.085205
6900.072071	1.303905	0.347859	3987.187012
6900.072999	1.274158	0.347859	5169.605469
6900.073874	1.246963	0.347859	6260.698242
6900.074793	1.218702	0.347859	7380.685547
6900.075749	1.037216	0.347859	8372.263672
6900.076682	0.165392	0.347859	8526.574219
6900.077543	0.083873	0.347859	8598.789062
6900.078510	0.083837	0.347859	8679.859375
6900.079459	0.083892	0.347859	8759.472656
6900.080353	0.083892	0.347859	8834.471680
6900.081279	0.083921	0.347859	8912.182617
6900.082187	0.083859	0.347859	8988.326172
6900.083137	0.083870	0.347859	9068.001953
6900.084027	0.083873	0.347859	9142.649414
6900.084940	0.083939	0.347859	9219.286133
6901.015993	0.845295	0.356266	356.714661
6901.016971	1.316591	0.356266	1644.340332
6901.017938	1.328709	0.356266	2929.201660
6901.018852	1.301067	0.356266	4118.376953
6901.019726	1.272568	0.356266	5230.601562
6901.020778	1.240855	0.356266	6535.980469
6901.021663	1.213788	0.356266	7610.182617
6901.022529	0.978721	0.356266	8457.754883
6901.023471	0.149656	0.356266	8598.730469
6901.024454	0.083763	0.356266	8681.070312
6901.025366	0.083859	0.356266	8757.549805
6901.026244	0.083870	0.356266	8831.187500
6901.027280	0.083943	0.356266	8918.152344
6901.028190	0.083925	0.356266	8994.523437
6901.029071	0.083943	0.356266	9068.477539
6901.029928	0.083851	0.356266	9140.337891
6901.030990	0.083866	0.356266	9229.403320
6901.031869	0.083877	0.356266	9303.130859
6902.132151	0.846610	0.336624	357.269470
6902.133117	1.316968	0.336624	1629.460205
6902.134139	1.327632	0.336624	2986.299805
6902.135032	1.300162	0.336624	4147.344727
6902.135896	1.271741	0.336624	5246.128906
6902.136971	1.239379	0.336624	6578.460937
6902.137900	1.211334	0.336624	7703.790527
6902.138784	0.888593	0.336624	8489.306641
6902.139753	0.123344	0.336624	8608.826172
6902.140754	0.083709	0.336624	8692.618164
6902.141639	0.083862	0.336624	8766.835937
6902.142495	0.083906	0.336624	8838.660156
6902.143567	0.083928	0.336624	8928.630859
6902.144494	0.083840	0.336624	9006.350586
6902.145375	0.083837	0.336624	9080.210937
6902.146319	0.083899	0.336624	9159.411133
6902.147361	0.083910	0.336624	9246.845703
6902.148250	0.083855	0.336624	9321.392578
6903.080893	0.850642	0.356923	362.373535
6903.081807	1.318206	0.356923	1567.213501
6903.082779	1.329727	0.356923	2859.707764
6903.083710	1.302056	0.356923	4071.921631
6903.084577	1.273700	0.356923	5176.219727
6903.085544	1.244180	0.356923	6379.341309
6903.086503	1.215597	0.356923	7545.098633
6903.087402	1.001913	0.356923	8445.818359
6903.088322	0.158514	0.356923	8591.651367
6903.089265	0.083676	0.356923	8670.557617
6903.090186	0.083837	0.356923	8747.771484
6903.091055	0.083800	0.356923	8820.593750
6903.091963	0.083793	0.356923	8896.677734
6903.092928	0.083818	0.356923	8977.562500
6903.093841	0.083873	0.356923	9054.138672
6903.094716	0.083884	0.356923	9127.537109
6903.095686	0.083844	0.356923	9208.866211
6903.096628	0.083917	0.356923	9287.916016
6904.193471	0.854180	0.335323	364.734711
6904.194383	1.317609	0.335323	1566.393921
6904.195348	1.329796	0.335323	2849.646973
6904.196270	1.302466	0.335323	4050.520508
6904.197144	1.273846	0.335323	5163.862305
6904.198133	1.243770	0.335323	6393.950195
6904.199085	1.215293	0.335323	7550.909180
6904.199981	0.999283	0.335323	8446.267578
6904.200900	0.156042	0.335323	8589.670898
6904.201860	0.083727	0.335323	8670.048828
6904.202788	0.083760	0.335323	8747.778320
6904.203646	0.083884	0.335323	8819.750977
6904.204577	0.083741	0.335323	8897.713867
6904.205535	0.083840	0.335323	8978.033203
6904.206426	0.083822	0.335323	9052.718750
6904.207503	0.083840	0.335323	9143.014648
6904.208456	0.083804	0.335323	9222.879883
6904.209377	0.083826	0.335323	9300.083008
6905.145812	0.871688	0.357257	393.131409
6905.146900	1.328851	0.357257	1838.921631
6905.147805	1.326735	0.357257	3039.616211
6905.148674	1.299631	0.357257	4168.996094
6905.149743	1.265790	0.357257	5522.125488
6905.150725	1.235574	0.357257	6735.458984
6905.151603	1.209188	0.357257	7797.125977
6905.152501	0.766340	0.357257	8485.299805
6905.153592	0.093311	0.357257	8587.101562
6905.154465	0.083752	0.357257	8660.217773
6905.155321	0.083884	0.357257	8732.022461
6905.156399	0.083990	0.357257	8822.564453
6905.157367	0.083818	0.357257	8903.700195
6905.158236	0.083910	0.357257	8976.618164
6905.159093	0.083925	0.357257	9048.541992
6905.160202	0.083873	0.357257	9141.557617
6905.161105	0.083822	0.357257	9217.249023
6905.161981	0.083921	0.357257	9290.763672
6906.253340	0.924250	0.333933	472.291962
6906.254239	1.324274	0.333933	1662.814087
6906.255102	1.329866	0.333933	2810.488281
6906.256206	1.297690	0.333933	4243.138672
6906.257204	1.265790	0.333933	5506.396973
6906.258092	1.238522	0.333933	6606.204102
6906.259101	1.208507	0.333933	7825.587891
6906.260156	0.593470	0.333933	8451.699219
6906.261035	0.091263	0.333933	8531.919922
6906.261903	0.083840	0.333933	8604.693359
6906.263012	0.083943	0.333933	8697.786133
6906.263972	0.083969	0.333933	8778.395508
6906.264839	0.083844	0.333933	8851.087891
6906.265847	0.083987	0.333933	8935.747070
6906.266894	0.083829	0.333933	9023.516602
6906.267784	0.083903	0.333933	9098.189453
6906.268710	0.083870	0.333933	9175.852539
6906.269787	0.083928	0.333933	9266.243164
6907.211245	0.892896	0.358643	422.339569
6907.212147	1.320780	0.358643	1613.683105
6907.213024	1.331517	0.358643	2781.423828
6907.213938	1.304612	0.358643	3973.838867
6907.214912	1.273612	0.358643	5214.336914
6907.215837	1.244670	0.358643	6365.657227
6907.216708	1.218149	0.358643	7426.665527
6907.217691	1.015833	0.358643	8425.228516
6907.218616	0.150707	0.358643	8564.631836
6907.219544	0.083749	0.358643	8642.350586
6907.220402	0.083855	0.358643	8714.297852
6907.221354	0.083782	0.358643	8794.057617
6907.222305	0.083767	0.358643	8873.719727
6907.223192	0.083811	0.358643	8948.060547
6907.224102	0.083778	0.358643	9024.298828
6907.225061	0.083840	0.358643	9104.702148
6907.225993	0.083822	0.358643	9182.824219
6907.226855	0.083851	0.358643	9255.104492
6908.314112	0.906991	0.334457	436.262665
6908.315007	1.321326	0.334457	1618.849121
6908.315874	1.331653	0.334457	2773.392090
6908.316826	1.303261	0.334457	4014.096191
6908.317789	1.272539	0.334457	5239.551270
6908.318713	1.243850	0.334457	6388.868652
6908.319595	1.217062	0.334457	7462.317383
6908.320568	0.989033	0.334457	8424.646484
6908.321523	0.139178	0.334457	8557.561523
6908.322411	0.083756	0.334457	8631.936523
6908.323300	0.083870	0.334457	8706.497070
6908.324239	0.083855	0.334457	8785.237305
6908.325169	0.083866	0.334457	8863.232422
6908.326026	0.083928	0.334457	8935.159180
6908.327030	0.083899	0.334457	9019.393555
6908.327959	0.083840	0.334457	9097.281250
6908.328846	0.083928	0.334457	9171.725586
6908.329706	0.083815	0.334457	9243.806641
6909.276192	0.928839	0.358687	475.565643
6909.277129	1.326691	0.358687	1718.674805
6909.277993	1.329705	0.358687	2867.539551
6909.279067	1.297064	0.358687	4260.586426
6909.280077	1.265010	0.358687	5538.246094
6909.280957	1.237969	0.358687	6627.658691
6909.281943	1.208990	0.358687	7819.723145
6909.283006	0.586685	0.358687	8443.369141
6909.283912	0.090183	0.358687	8525.075195
6909.284767	0.083822	0.358687	8596.743164
6909.285850	0.083917	0.358687	8687.625977
6909.286846	0.083829	0.358687	8771.120117
6909.287719	0.083848	0.358687	8844.319336
6909.288705	0.083932	0.358687	8927.076172
6909.289761	0.083888	0.358687	9015.662109
6909.290663	0.083906	0.358687	9091.345703
6909.291526	0.083866	0.358687	9163.721680
6909.292630	0.083884	0.358687	9256.330078
6910.375392	0.897568	0.332467	410.188721
6910.376284	1.319550	0.332467	1587.226929
6910.377151	1.331287	0.332467	2741.452637
6910.378134	1.303132	0.332467	4022.431641
6910.379090	1.272876	0.332467	5239.300781
6910.379982	1.244985	0.332467	6349.827637
6910.380893	1.217736	0.332467	7459.184570
6910.381857	1.011614	0.332467	8434.379883
6910.382785	0.150524	0.332467	8574.065430
6910.383646	0.083734	0.332467	8646.160156
6910.384619	0.083811	0.332467	8727.708008
6910.385563	0.083844	0.332467	8806.856445
6910.386472	0.083881	0.332467	8883.103516
6910.387346	0.083815	0.332467	8956.357422
6910.388308	0.083829	0.332467	9037.000977
6910.389265	0.083899	0.332467	9117.291992
6910.390155	0.083884	0.332467	9191.949219
6910.391064	0.083884	0.332467	9268.200195
6911.340025	0.917490	0.361289	436.725342
6911.340958	1.323175	0.361289	1671.247559
6911.341887	1.329393	0.361289	2906.253906
6911.342750	1.302396	0.361289	4030.221924
6911.343729	1.271690	0.361289	5275.206055
6911.344659	1.243037	0.361289	6431.230469
6911.345542	1.215894	0.361289	7504.864258
6911.346568	0.916029	0.361289	8444.709961
6911.347460	0.127068	0.361289	8558.054687
6911.348377	0.083763	0.361289	8634.866211
6911.349239	0.083804	0.361289	8707.105469
6911.350245	0.083822	0.361289	8791.430664
6911.351171	0.083811	0.361289	8869.040039
6911.352046	0.083829	0.361289	8942.390625
6911.352985	0.083958	0.361289	9021.226562
6911.353902	0.083818	0.361289	9098.087891
6911.354823	0.083800	0.361289	9175.267578
6911.355698	0.083873	0.361289	9248.656250
6912.439790	0.896876	0.323770	419.738068
6912.440669	1.318876	0.323770	1579.029907
6912.441530	1.331697	0.323770	2725.620850
6912.442612	1.300953	0.323770	4133.252441
6912.443524	1.270891	0.323770	5292.305176
6912.444404	1.243784	0.323770	6386.834961
6912.445379	1.214886	0.323770	7571.349121
6912.446408	0.836506	0.323770	8432.114258
6912.447307	0.112053	0.323770	8532.850586
6912.448169	0.083734	0.323770	8605.029297
6912.449240	0.083884	0.323770	8694.869141
6912.450182	0.083851	0.323770	8773.857422
6912.451060	0.083873	0.323770	8847.498047
6912.452012	0.083818	0.323770	8927.292969
6912.453026	0.083789	0.323770	9012.254883
6912.453905	0.083840	0.323770	9085.950195
6912.454767	0.083899	0.323770	9158.271484
6912.455833	0.083899	0.323770	9247.708008
6913.401804	0.879990	0.361986	385.435730
6913.402736	1.320674	0.361986	1616.303711
6913.403604	1.330807	0.361986	2771.444092
6913.404589	1.302448	0.361986	4054.354980
6913.405538	1.272503	0.361986	5261.959961
6913.406427	1.244707	0.361986	6368.504395
6913.407364	1.217150	0.361986	7508.973633
6913.408295	0.986774	0.361986	8427.660156
6913.409234	0.142064	0.361986	8561.058594
6913.410112	0.083698	0.361986	8634.544922
6913.411077	0.083818	0.361986	8715.429687
6913.412035	0.083833	0.361986	8795.742187
6913.412956	0.083866	0.361986	8872.982422
6913.413819	0.083851	0.361986	8945.345703
6913.414785	0.083745	0.361986	9026.243164
6913.415737	0.083826	0.361986	9106.044922
6913.416624	0.083851	0.361986	9180.420898
6913.417543	0.083818	0.361986	9257.450195
6914.502079	0.847965	0.321933	360.385162
6914.502966	1.313763	0.321933	1525.693237
6914.503936	1.330569	0.321933	2816.344971
6914.504858	1.302792	0.321933	4017.519043
6914.505755	1.274458	0.321933	5160.708008
6914.506674	1.245491	0.321933	6305.313965
6914.507646	1.216472	0.321933	7487.724609
6914.508571	1.013895	0.321933	8425.578125
6914.509457	0.160254	0.321933	8567.563477
6914.510436	0.083767	0.321933	8649.571289
6914.511344	0.083818	0.321933	8725.678711
6914.512266	0.083818	0.321933	8802.958984
6914.513125	0.083785	0.321933	8874.930664
6914.514100	0.083859	0.321933	8956.692383
6914.515047	0.083815	0.321933	9036.064453
6914.515915	0.083862	0.321933	9108.857422
6914.516824	0.083840	0.321933	9185.068359
6914.517773	0.083811	0.321933	9264.605469
6915.465147	0.872355	0.360967	369.878418
6915.466210	1.328339	0.360967	1781.902344
6915.467111	1.328156	0.360967	2978.570312
6915.467990	1.301276	0.360967	4122.391602
6915.468988	1.269796	0.360967	5389.648437
6915.469944	1.239580	0.360967	6574.687012
6915.470874	1.211905	0.360967	7701.759277
6915.471747	0.895236	0.360967	8483.299805
6915.472788	0.105498	0.360967	8593.123047
6915.473666	0.083892	0.360967	8666.780273
6915.474531	0.083943	0.360967	8739.390625
6915.475513	0.084005	0.360967	8821.883789
6915.476445	0.083983	0.360967	8900.156250
6915.477367	0.083972	0.360967	8977.578125
6915.478250	0.083994	0.360967	9051.745117
6915.479265	0.083998	0.360967	9137.002930
6915.480172	0.083943	0.360967	9213.138672
6915.481042	0.083994	0.360967	9286.213867
6916.567481	0.865496	0.320579	364.373627
6916.568589	1.328090	0.320579	1835.896973
6916.569561	1.325251	0.320579	3124.041504
6916.570429	1.297961	0.320579	4250.671875
6916.571498	1.264123	0.320579	5602.019531
6916.572545	1.232252	0.320579	6892.187500
6916.573434	1.205266	0.320579	7963.668945
6916.574380	0.610594	0.320579	8541.291016
6916.575438	0.087590	0.320579	8633.961914
6916.576370	0.083855	0.320579	8712.115234
6916.577230	0.083844	0.320579	8784.220703
6916.578273	0.083903	0.320579	8871.731445
6916.579296	0.083917	0.320579	8957.579102
6916.580169	0.083917	0.320579	9030.838867
6916.581123	0.083965	0.320579	9110.941406
6916.582167	0.083917	0.320579	9198.550781
6916.583090	0.084001	0.320579	9276.083984
6916.583960	0.083906	0.320579	9349.082031
6917.526511	0.891826	0.353994	426.292908
6917.527464	1.323970	0.353994	1688.036133
6917.528392	1.328785	0.353994	2921.148926
6917.529272	1.301744	0.353994	4066.684082
6917.530233	1.271576	0.353994	5288.668457
6917.531164	1.241865	0.353994	6444.844727
6917.532097	1.214322	0.353994	7577.807617
6917.532964	0.966237	0.353994	8415.535156
6917.533938	0.137494	0.353994	8549.454102
6917.534866	0.083698	0.353994	8627.125000
6917.535729	0.083840	0.353994	8699.479492
6917.536677	0.083785	0.353994	8778.908203
6917.537605	0.083815	0.353994	8856.688477
6917.538528	0.083771	0.353994	8934.008789
6917.539388	0.083826	0.353994	9006.098633
6917.540359	0.083811	0.353994	9087.479492
6917.541314	0.083873	0.353994	9167.578125
6917.542213	0.083848	0.353994	9242.957031
6918.632501	0.945663	0.324740	519.168884
6918.633399	1.325735	0.324740	1709.678711
6918.634307	1.328818	0.324740	2916.245605
6918.635188	1.301660	0.324740	4063.008301
6918.636176	1.270660	0.324740	5318.420898
6918.637110	1.241829	0.324740	6478.289062
6918.638003	1.214641	0.324740	7562.963379
6918.638942	0.938163	0.324740	8443.898437
6918.639892	0.121740	0.324740	8559.550781
6918.640827	0.083712	0.324740	8637.821289
6918.641717	0.083855	0.324740	8712.452148
6918.642652	0.083785	0.324740	8790.791016
6918.643604	0.083906	0.324740	8870.669922
6918.644479	0.083862	0.324740	8944.049805
6918.645432	0.083877	0.324740	9023.984375
6918.646372	0.083815	0.324740	9102.770508
6918.647294	0.083899	0.324740	9180.125000
6918.648179	0.083895	0.324740	9254.372070
6919.590338	0.850712	0.350671	362.403198
6919.591297	1.315620	0.350671	1624.083008
6919.592316	1.327680	0.350671	2976.988281
6919.593202	1.300441	0.350671	4129.178711
6919.594067	1.272261	0.350671	5229.684082
6919.595133	1.239814	0.350671	6551.326172
6919.596068	1.211642	0.350671	7684.211426
6919.596950	0.901600	0.350671	8479.422852
6919.597903	0.126826	0.350671	8600.288086
6919.598945	0.083701	0.350671	8687.504883
6919.599837	0.083844	0.350671	8762.293945
6919.600698	0.083892	0.350671	8834.524414
6919.601753	0.083840	0.350671	8922.975586
6919.602713	0.083855	0.350671	9003.476562
6919.603587	0.083914	0.350671	9076.817383
6919.604505	0.083851	0.350671	9153.792969
6919.605547	0.083859	0.350671	9241.173828
6919.606421	0.083855	0.350671	9314.462891
6920.695334	0.932402	0.321969	484.849213
6920.696221	1.324138	0.321969	1659.359741
6920.697085	1.329489	0.321969	2808.037842
6920.698208	1.296892	0.321969	4264.447754
6920.699176	1.266237	0.321969	5490.164551
6920.700039	1.239401	0.321969	6559.767578
6920.701085	1.208408	0.321969	7823.762695
6920.702129	0.590380	0.321969	8440.119141
6920.703018	0.091381	0.321969	8521.356445
6920.703952	0.083837	0.321969	8599.660156
6920.705015	0.083936	0.321969	8688.883789
6920.705955	0.083837	0.321969	8767.690430
6920.706814	0.083928	0.321969	8839.785156
6920.707859	0.083976	0.321969	8927.540039
6920.708891	0.083833	0.321969	9014.055664
6920.709790	0.083921	0.321969	9089.500977
6920.710752	0.083936	0.321969	9170.247070
6920.711808	0.083899	0.321969	9258.844727
6921.653201	0.870480	0.350804	381.270111
6921.654126	1.319861	0.350804	1602.141357
6921.655006	1.331151	0.350804	2773.554199
6921.655977	1.303015	0.350804	4038.781738
6921.656898	1.272579	0.350804	5210.827148
6921.657830	1.244147	0.350804	6370.372070
6921.658699	1.217230	0.350804	7428.145020
6921.659682	0.992552	0.350804	8403.824219
6921.660631	0.147067	0.350804	8543.390625
6921.661518	0.083782	0.350804	8617.705078
6921.662449	0.083888	0.350804	8695.804687
6921.663380	0.083884	0.350804	8773.901367
6921.664315	0.083811	0.350804	8852.264648
6921.665191	0.083873	0.350804	8925.737305
6921.666143	0.083859	0.350804	9005.570312
6921.667109	0.083822	0.350804	9086.541992
6921.667997	0.083873	0.350804	9161.021484
6921.669055	0.083899	0.350804	9249.786133
6922.758218	0.945769	0.321433	539.088318
6922.759147	1.328701	0.321433	1773.451904
6922.760055	1.327419	0.321433	2978.748779
6922.760938	1.299957	0.321433	4126.611328
6922.761966	1.267540	0.321433	5429.642578
6922.762871	1.239606	0.321433	6551.485840
6922.763754	1.213066	0.321433	7622.623535
6922.764702	0.853795	0.321433	8432.021484
6922.765684	0.106403	0.321433	8536.508789
6922.766607	0.083712	0.321433	8613.775391
6922.767472	0.083888	0.321433	8686.338867
6922.768483	0.083881	0.321433	8771.142578
6922.769376	0.083873	0.321433	8846.041016
6922.770251	0.083910	0.321433	8919.461914
6922.771117	0.083811	0.321433	8992.041992
6922.772189	0.083888	0.321433	9081.969727
6922.773074	0.083829	0.321433	9156.159180
6922.773947	0.083917	0.321433	9229.418945
6923.715528	0.856187	0.344334	373.297333
6923.716395	1.314144	0.344334	1512.660400
6923.717412	1.329507	0.344334	2864.769043
6923.718469	1.297716	0.344334	4236.455078
6923.719362	1.268947	0.344334	5369.624023
6923.720296	1.240199	0.344334	6527.969727
6923.721380	1.207855	0.344334	7837.284668
6923.722325	0.685939	0.344334	8485.497070
6923.723193	0.097852	0.344334	8570.432617
6923.724267	0.083881	0.344334	8660.520508
6923.725284	0.083895	0.344334	8745.841797
6923.726176	0.083884	0.344334	8820.666992
6923.727127	0.083961	0.344334	8900.513672
6923.728163	0.083892	0.344334	8987.425781
6923.729087	0.083818	0.344334	9064.874023
6923.729949	0.083921	0.344334	9137.213867
6923.731005	0.083895	0.344334	9225.807617
6923.732010	0.083815	0.344334	9310.041016
6924.821948	0.851653	0.318565	362.804108
6924.822868	1.318304	0.318565	1575.644165
6924.823833	1.329727	0.318565	2858.830322
6924.824765	1.301964	0.318565	4072.260742
6924.825634	1.273491	0.318565	5178.924805
6924.826605	1.244095	0.318565	6386.941406
6924.827552	1.215667	0.318565	7538.177734
6924.828440	1.016554	0.318565	8440.877930
6924.829376	0.164487	0.318565	8594.837891
6924.830301	0.083741	0.318565	8672.298828
6924.831236	0.083866	0.318565	8750.713867
6924.832128	0.083862	0.318565	8825.519531
6924.833042	0.083848	0.318565	8902.156250
6924.833999	0.083837	0.318565	8982.387695
6924.834924	0.083833	0.318565	9059.933594
6924.835789	0.083829	0.318565	9132.446289
6924.836756	0.083826	0.318565	9213.505859
6924.837708	0.083804	0.318565	9293.287109
6925.778461	0.947985	0.347742	496.743927
6925.779363	1.324589	0.347742	1691.522827
6925.780290	1.328917	0.347742	2923.429199
6925.781159	1.301759	0.347742	4054.657715
6925.782158	1.270569	0.347742	5323.956055
6925.783089	1.242081	0.347742	6480.333984
6925.783974	1.215198	0.347742	7555.784180
6925.784924	0.948622	0.347742	8456.974609
6925.785859	0.129503	0.347742	8578.060547
6925.786774	0.083741	0.347742	8654.683594
6925.787641	0.083800	0.347742	8727.337891
6925.788650	0.083866	0.347742	8811.958984
6925.789572	0.083793	0.347742	8889.215820
6925.790454	0.083873	0.347742	8963.192383
6925.791340	0.083833	0.347742	9037.468750
6925.792332	0.083767	0.347742	9120.565430
6925.793261	0.083870	0.347742	9198.480469
6925.794137	0.083870	0.347742	9271.950195
6926.885828	0.859420	0.314887	371.269501
6926.886690	1.313774	0.314887	1503.743042
6926.887770	1.328276	0.314887	2938.281494
6926.888696	1.300049	0.314887	4142.126953
6926.889574	1.271920	0.314887	5258.873047
6926.890541	1.242305	0.314887	6460.181641
6926.891587	1.210957	0.314887	7726.842773
6926.892474	0.856644	0.314887	8486.686523
6926.893341	0.119751	0.314887	8590.510742
6926.894391	0.083774	0.314887	8678.473633
6926.895336	0.083822	0.314887	8757.685547
6926.896213	0.083884	0.314887	8831.251953
6926.897153	0.083928	0.314887	8910.144531
6926.898206	0.083899	0.314887	8998.490234
6926.899101	0.083877	0.314887	9073.560547
6926.899963	0.083844	0.314887	9145.833984
6926.901013	0.083936	0.314887	9233.966797
6926.901957	0.083793	0.314887	9313.067383
6927.841736	0.866301	0.343432	371.643250
6927.842616	1.315488	0.343432	1529.272949
6927.843618	1.329371	0.343432	2861.302979
6927.844675	1.298247	0.343432	4233.549805
6927.845561	1.269346	0.343432	5358.190430
6927.846457	1.241034	0.343432	6470.156738
6927.847555	1.208800	0.343432	7797.418945
6927.848522	0.702891	0.343432	8477.114258
6927.849385	0.099701	0.343432	8563.156250
6927.850443	0.083862	0.343432	8651.882812
6927.851458	0.083811	0.343432	8736.951172
6927.852337	0.083877	0.343432	8810.678711
6927.853280	0.083870	0.343432	8889.767578
6927.854330	0.083892	0.343432	8977.853516
6927.855264	0.083855	0.343432	9056.173828
6927.856123	0.083844	0.343432	9128.196289
6927.857190	0.084020	0.343432	9217.845703
6927.858212	0.083818	0.343432	9303.507812
6928.950211	0.849067	0.311362	362.551758
6928.951075	1.313082	0.311362	1497.054932
6928.952006	1.331323	0.311362	2736.516846
6928.952972	1.303367	0.311362	3995.569092
6928.953902	1.273839	0.311362	5180.239258
6928.954776	1.246146	0.311362	6269.371094
6928.955752	1.217596	0.311362	7457.745117
6928.956705	1.014353	0.311362	8424.423828
6928.957576	0.162847	0.311362	8566.263672
6928.958479	0.083741	0.311362	8641.881836
6928.959430	0.083741	0.311362	8721.519531
6928.960348	0.083888	0.311362	8798.528320
6928.961208	0.083851	0.311362	8870.640625
6928.962177	0.083844	0.311362	8951.885742
6928.963137	0.083800	0.311362	9032.333984
6928.964023	0.083818	0.311362	9106.596680
6928.964919	0.083826	0.311362	9181.704102
6928.965872	0.083807	0.311362	9261.572266
6929.903539	0.855278	0.342030	359.216888
6929.904609	1.327364	0.342030	1779.496826
6929.905508	1.328009	0.342030	2973.376953
6929.906385	1.301089	0.342030	4114.431641
6929.907345	1.270909	0.342030	5334.504883
6929.908333	1.240118	0.342030	6559.741699
6929.909264	1.212235	0.342030	7688.332520
6929.910144	0.916249	0.342030	8494.631836
6929.911188	0.109706	0.342030	8609.165039
6929.912057	0.083719	0.342030	8681.916992
6929.912935	0.083895	0.342030	8755.577148
6929.913844	0.083855	0.342030	8831.801758
6929.914852	0.083870	0.342030	8916.342773
6929.915770	0.083826	0.342030	8993.294922
6929.916653	0.083848	0.342030	9067.332031
6929.917648	0.083881	0.342030	9150.792969
6929.918566	0.083818	0.342030	9227.738281
6929.919491	0.083906	0.342030	9305.351562
6931.015605	0.843527	0.312055	354.281158
6931.016609	1.319846	0.312055	1679.406616
6931.017674	1.325508	0.312055	3091.072266
6931.018570	1.297119	0.312055	4253.291016
6931.019443	1.268284	0.312055	5360.502930
6931.020546	1.235350	0.312055	6723.094238
6931.021512	1.206643	0.312055	7888.711426
6931.022388	0.720062	0.312055	8519.486328
6931.023435	0.092260	0.312055	8616.082031
6931.024464	0.083749	0.312055	8702.259766
6931.025361	0.083888	0.312055	8777.506836
6931.026300	0.083855	0.312055	8856.247070
6931.027359	0.083789	0.312055	8944.979492
6931.028282	0.083815	0.312055	9022.340820
6931.029142	0.083822	0.312055	9094.427734
6931.030196	0.083888	0.312055	9182.845703
6931.031208	0.083767	0.312055	9267.618164
6931.032085	0.083767	0.312055	9341.082031
6931.963838	0.852770	0.337740	364.985474
6931.964759	1.315382	0.337740	1576.452393
6931.965737	1.329679	0.337740	2876.878418
6931.966665	1.301620	0.337740	4084.781738
6931.967534	1.273575	0.337740	5191.518555
6931.968495	1.244081	0.337740	6387.080078
6931.969430	1.215293	0.337740	7523.378906
6931.970362	0.985155	0.337740	8441.542969
6931.971226	0.154731	0.337740	8575.230469
6931.972178	0.083709	0.337740	8654.920898
6931.973138	0.083752	0.337740	8735.323242
6931.974027	0.083884	0.337740	8809.896484
6931.974937	0.083859	0.337740	8886.208008
6931.975879	0.083756	0.337740	8965.106445
6931.976783	0.083800	0.337740	9040.861328
6931.977648	0.083833	0.337740	9113.376953
6931.978620	0.083804	0.337740	9194.833984
6931.979572	0.083793	0.337740	9274.604492
6933.079996	0.860328	0.305884	363.918915
6933.081028	1.326075	0.305884	1732.428833
6933.081926	1.328635	0.305884	2925.543213
6933.082805	1.302019	0.305884	4070.018066
6933.083777	1.271195	0.305884	5305.619629
6933.084734	1.241320	0.305884	6493.562500
6933.085663	1.213502	0.305884	7620.906250
6933.086535	0.964146	0.305884	8461.641602
6933.087589	0.113763	0.305884	8581.547852
6933.088480	0.083665	0.305884	8656.092773
6933.089396	0.083763	0.305884	8732.820312
6933.090262	0.083837	0.305884	8805.422852
6933.091255	0.083760	0.305884	8888.596680
6933.092189	0.083767	0.305884	8966.834961
6933.093054	0.083837	0.305884	9039.353516
6933.094053	0.083855	0.305884	9123.125000
6933.094958	0.083822	0.305884	9198.984375
6933.095876	0.083815	0.305884	9275.925781
6934.023179	0.912524	0.332104	458.999817
6934.024201	1.329386	0.332104	1817.632324
6934.025097	1.327112	0.332104	3006.724609
6934.026053	1.297734	0.332104	4247.358398
6934.027103	1.264028	0.332104	5574.587891
6934.028032	1.235574	0.332104	6722.436035
6934.028900	1.209045	0.332104	7771.887695
6934.029985	0.605958	0.332104	8429.352539
6934.030987	0.088220	0.332104	8517.749023
6934.031863	0.083771	0.332104	8591.131836
6934.032855	0.083848	0.332104	8674.308594
6934.033906	0.083844	0.332104	8762.428711
6934.034811	0.083892	0.332104	8838.350586
6934.035671	0.083826	0.332104	8910.440430
6934.036762	0.083983	0.332104	9002.066406
6934.037753	0.083851	0.332104	9085.163086
6934.038628	0.083859	0.332104	9158.539062
6934.039604	0.083932	0.332104	9240.457031
6935.146455	0.865580	0.300667	382.586304
6935.147324	1.315931	0.300667	1526.130737
6935.148242	1.331385	0.300667	2748.342773
6935.149209	1.303323	0.300667	4008.655762
6935.150136	1.273612	0.300667	5189.293945
6935.151019	1.245886	0.300667	6289.411621
6935.151972	1.217626	0.300667	7449.809082
6935.152908	1.021516	0.300667	8405.948242
6935.153809	0.162653	0.300667	8552.498047
6935.154833	0.083723	0.300667	8638.230469
6935.155782	0.083778	0.300667	8717.736328
6935.156714	0.083796	0.300667	8795.834961
6935.157573	0.083741	0.300667	8867.768555
6935.158544	0.083826	0.300667	8949.163086
6935.159468	0.083826	0.300667	9026.618164
6935.160370	0.083829	0.300667	9102.232422
6935.161245	0.083763	0.300667	9175.525391
6935.162213	0.083873	0.300667	9256.714844
6936.083500	0.928671	0.327605	500.553436
6936.084443	1.327866	0.327605	1752.731323
6936.085359	1.327595	0.327605	2968.808594
6936.086245	1.300316	0.327605	4120.888672
6936.087297	1.267218	0.327605	5454.001953
6936.088214	1.238719	0.327605	6589.907715
6936.089107	1.211766	0.327605	7672.015137
6936.090078	0.803221	0.327605	8451.943359
6936.091058	0.101733	0.327605	8551.641602
6936.091986	0.083774	0.327605	8629.383789
6936.092853	0.083793	0.327605	8702.032227
6936.093884	0.083862	0.327605	8788.494141
6936.094754	0.083826	0.327605	8861.422852
6936.095624	0.083789	0.327605	8934.319336
6936.096537	0.083811	0.327605	9010.838867
6936.097549	0.083756	0.327605	9095.599609
6936.098445	0.083800	0.327605	9170.684570
6936.099319	0.083877	0.327605	9243.993164
6937.213946	0.908979	0.301485	433.583221
6937.214824	1.319707	0.301485	1592.286011
6937.215820	1.329078	0.301485	2916.047852
6937.216862	1.297350	0.301485	4267.886230
6937.217778	1.267793	0.301485	5429.184570
6937.218643	1.240115	0.301485	6501.883789
6937.219743	1.208225	0.301485	7830.931152
6937.220734	0.645531	0.301485	8470.652344
6937.221602	0.094761	0.301485	8552.904297
6937.222592	0.083848	0.301485	8635.913086
6937.223669	0.083837	0.301485	8726.205078
6937.224553	0.083829	0.301485	8800.310547
6937.225418	0.083833	0.301485	8872.826172
6937.226533	0.083914	0.301485	8966.389648
6937.227509	0.083818	0.301485	9048.196289
6937.228372	0.083899	0.301485	9120.600586
6937.229420	0.083881	0.301485	9208.507812
6937.230455	0.083873	0.301485	9295.316406
6938.142168	0.862573	0.324600	379.532196
6938.143045	1.315129	0.324600	1532.900757
6938.143907	1.332623	0.324600	2681.622070
6938.144846	1.305359	0.324600	3907.354004
6938.145792	1.274729	0.324600	5113.247559
6938.146728	1.246234	0.324600	6279.722656
6938.147602	1.218973	0.324600	7345.105469
6938.148578	1.039589	0.324600	8359.744141
6938.149534	0.164491	0.324600	8516.997070
6938.150428	0.083807	0.324600	8591.920898
6938.151337	0.083881	0.324600	8668.167969
6938.152286	0.083877	0.324600	8747.767578
6938.153210	0.083903	0.324600	8825.293945
6938.154076	0.083888	0.324600	8897.940430
6938.155018	0.083859	0.324600	8976.935547
6938.155951	0.083829	0.324600	9055.148437
6938.156879	0.083881	0.324600	9132.989258
6938.157759	0.083837	0.324600	9206.765625
6939.280311	0.845966	0.309642	356.997467
6939.281266	1.319615	0.309642	1617.230225
6939.282214	1.329357	0.309642	2877.460449
6939.283149	1.301554	0.309642	4094.413330
6939.284020	1.273074	0.309642	5203.260742
6939.284995	1.243400	0.309642	6415.575195
6939.285947	1.215062	0.309642	7572.314453
6939.286842	0.985045	0.309642	8453.929687
6939.287759	0.152443	0.309642	8593.719727
6939.288689	0.083690	0.309642	8671.551758
6939.289614	0.083815	0.309642	8749.080078
6939.290476	0.083855	0.309642	8821.363281
6939.291450	0.083866	0.309642	8903.048828
6939.292406	0.083870	0.309642	8983.228516
6939.293295	0.083903	0.309642	9057.818359
6939.294203	0.083873	0.309642	9133.975586
6939.295166	0.083815	0.309642	9214.689453
6939.296092	0.083870	0.309642	9292.352539
6940.205007	0.869502	0.324986	379.102844
6940.205881	1.315898	0.324986	1529.197998
6940.206917	1.328555	0.324986	2905.580566
6940.207829	1.300990	0.324986	4092.083496
6940.208706	1.272916	0.324986	5208.431152
6940.209675	1.243473	0.324986	6413.356445
6940.210636	1.214169	0.324986	7580.172363
6940.211577	0.932406	0.324986	8457.566406
6940.212444	0.137450	0.324986	8576.735352
6940.213481	0.083719	0.324986	8663.552734
6940.214361	0.083851	0.324986	8737.341797
6940.215234	0.083947	0.324986	8810.626953
6940.216156	0.083954	0.324986	8888.032227
6940.217178	0.083888	0.324986	8973.765625
6940.218076	0.083840	0.324986	9049.054687
6940.218965	0.083903	0.324986	9123.644531
6940.219973	0.083950	0.324986	9208.266602
6940.220892	0.083818	0.324986	9285.295898
6941.346331	0.922357	0.310307	467.635071
6941.347272	1.325914	0.310307	1715.320312
6941.348148	1.329536	0.310307	2879.993896
6941.349111	1.300649	0.310307	4132.519531
6941.350162	1.267313	0.310307	5464.465820
6941.351044	1.239390	0.310307	6557.607422
6941.351916	1.212825	0.310307	7615.190430
6941.352958	0.769486	0.310307	8416.995117
6941.353903	0.099360	0.310307	8510.890625
6941.354783	0.083804	0.310307	8584.637695
6941.355735	0.083925	0.310307	8664.534180
6941.356782	0.083837	0.310307	8752.311523
6941.357671	0.083906	0.310307	8826.904297
6941.358533	0.083844	0.310307	8899.177734
6941.359591	0.083983	0.310307	8988.032227
6941.360528	0.083785	0.310307	9066.539062
6941.361399	0.083899	0.310307	9139.615234
6941.362324	0.083837	0.310307	9217.164062
6942.267317	0.860471	0.316305	361.397888
6942.268280	1.320707	0.316305	1633.238525
6942.269211	1.329470	0.316305	2870.975342
6942.270104	1.302832	0.316305	4034.404297
6942.271015	1.273718	0.316305	5194.761719
6942.271978	1.243982	0.316305	6392.716309
6942.272906	1.215875	0.316305	7521.048828
6942.273773	1.040299	0.316305	8422.988281
6942.274749	0.159690	0.316305	8578.845703
6942.275688	0.083698	0.316305	8657.437500
6942.276593	0.083829	0.316305	8733.302734
6942.277456	0.083848	0.316305	8805.663086
6942.278411	0.083840	0.316305	8885.730469
6942.279364	0.083888	0.316305	8965.675781
6942.280261	0.083892	0.316305	9040.926758
6942.281173	0.083972	0.316305	9117.509766
6942.282130	0.083914	0.316305	9197.815430
6942.283047	0.083870	0.316305	9274.723633
6943.408612	0.900311	0.309425	411.442230
6943.409540	1.321637	0.309425	1637.921387
6943.410404	1.330602	0.309425	2787.561523
6943.411382	1.302301	0.309425	4061.211914
6943.412311	1.272162	0.309425	5243.050293
6943.413211	1.244388	0.309425	6363.000000
6943.414126	1.216769	0.309425	7476.343262
6943.415081	0.995281	0.309425	8426.835937
6943.415983	0.149963	0.309425	8562.102539
6943.416895	0.083705	0.309425	8638.441406
6943.417819	0.083767	0.309425	8715.841797
6943.418765	0.083837	0.309425	8795.151367
6943.419648	0.083881	0.309425	8869.217773
6943.420586	0.083771	0.309425	8947.794922
6943.421535	0.083785	0.309425	9027.307617
6943.422458	0.083866	0.309425	9104.715820
6943.423318	0.083811	0.309425	9176.792969
6943.424270	0.083782	0.309425	9256.552734
6944.329745	0.915894	0.308071	457.030884
6944.330628	1.320930	0.308071	1623.412231
6944.331503	1.330972	0.308071	2788.012451
6944.332425	1.303411	0.308071	3989.757080
6944.333427	1.271415	0.308071	5263.714844
6944.334361	1.242656	0.308071	6424.355469
6944.335242	1.216110	0.308071	7495.748047
6944.336295	0.872168	0.308071	8414.140625
6944.337208	0.115096	0.308071	8519.223633
6944.338125	0.083815	0.308071	8596.082031
6944.338991	0.083873	0.308071	8668.715820
6944.340033	0.083859	0.308071	8756.096680
6944.340915	0.083877	0.308071	8830.076172
6944.341787	0.083844	0.308071	8903.188477
6944.342797	0.083969	0.308071	8987.997070
6944.343711	0.083811	0.308071	9064.600586
6944.344639	0.083877	0.308071	9142.438477
6944.345500	0.083884	0.308071	9214.663086
6945.469903	0.877463	0.296433	389.593750
6945.470783	1.316440	0.296433	1548.061401
6945.471788	1.329185	0.296433	2883.891846
6945.472838	1.297943	0.296433	4246.732422
6945.473735	1.268844	0.296433	5384.885742
6945.474598	1.240964	0.296433	6455.837891
6945.475705	1.209349	0.296433	7794.587402
6945.476679	0.709427	0.296433	8485.569336
6945.477536	0.100042	0.296433	8571.304687
6945.478597	0.083829	0.296433	8660.248047
6945.479639	0.083848	0.296433	8747.617187
6945.480508	0.083899	0.296433	8820.525391
6945.481394	0.083848	0.296433	8894.814453
6945.482484	0.083928	0.296433	8986.295898
6945.483444	0.083818	0.296433	9066.761719
6945.484311	0.083870	0.296433	9139.476562
6945.485343	0.083994	0.296433	9226.158203
6945.486377	0.083848	0.296433	9312.856445
6946.393527	0.860219	0.305888	363.872437
6946.394489	1.321146	0.305888	1634.815186
6946.395424	1.329485	0.305888	2877.883545
6946.396310	1.302942	0.305888	4032.290039
6946.397226	1.273546	0.305888	5198.858398
6946.398192	1.243652	0.305888	6400.226562
6946.399124	1.215703	0.305888	7533.261719
6946.399991	1.024145	0.305888	8421.196289
6946.400972	0.155566	0.305888	8573.806641
6946.401911	0.083719	0.305888	8652.418945
6946.402800	0.083866	0.305888	8726.975586
6946.403675	0.083785	0.305888	8800.288086
6946.404635	0.083793	0.305888	8880.729492
6946.405557	0.083914	0.305888	8958.097656
6946.406419	0.083837	0.305888	9030.365234
6946.407384	0.083800	0.305888	9111.232422
6946.408339	0.083848	0.305888	9191.306641
6946.409222	0.083859	0.305888	9265.353516
6947.532851	0.924086	0.289694	505.474854
6947.533740	1.324768	0.289694	1683.193604
6947.534680	1.328621	0.289694	2932.096924
6947.535546	1.301788	0.289694	4059.445557
6947.536501	1.270657	0.289694	5272.922852
6947.537456	1.241440	0.289694	6458.498535
6947.538380	1.213989	0.289694	7580.224609
6947.539254	0.966768	0.289694	8425.179687
6947.540236	0.130419	0.289694	8553.250977
6947.541187	0.083723	0.289694	8632.872070
6947.542076	0.083895	0.289694	8707.455078
6947.542986	0.083870	0.289694	8783.776367
6947.543908	0.083829	0.289694	8861.067383
6947.544850	0.083862	0.289694	8940.065430
6947.545725	0.083833	0.289694	9013.418945
6947.546625	0.083855	0.289694	9088.888672
6947.547576	0.083892	0.289694	9168.669922
6947.548466	0.083796	0.289694	9243.249023
6948.456908	0.858585	0.313477	375.201721
6948.457771	1.313873	0.313477	1509.074463
6948.458821	1.328375	0.313477	2903.868408
6948.459786	1.299294	0.313477	4157.687500
6948.460664	1.271279	0.313477	5273.870605
6948.461577	1.242741	0.313477	6408.492676
6948.462656	1.211067	0.313477	7715.233887
6948.463552	0.858896	0.313477	8484.804687
6948.464413	0.120352	0.313477	8588.427734
6948.465471	0.083785	0.313477	8677.072266
6948.466438	0.083851	0.313477	8758.156250
6948.467309	0.083895	0.313477	8831.229492
6948.468209	0.083899	0.313477	8906.738281
6948.469280	0.083906	0.313477	8996.601562
6948.470162	0.083983	0.313477	9070.674805
6948.471025	0.083881	0.313477	9143.063477
6948.472065	0.083994	0.313477	9230.416992
6948.473018	0.083796	0.313477	9310.275391
6949.593535	0.851887	0.294448	362.903931
6949.594483	1.315093	0.294448	1609.611816
6949.595549	1.326317	0.294448	3023.465820
6949.596491	1.297178	0.294448	4245.407227
6949.597377	1.269115	0.294448	5369.843262
6949.598358	1.239375	0.294448	6585.669922
6949.599374	1.208335	0.294448	7813.338379
6949.600271	0.769065	0.294448	8503.189453
6949.601130	0.106520	0.294448	8594.689453
6949.602204	0.083833	0.294448	8684.726562
6949.603132	0.083848	0.294448	8762.537109
6949.604006	0.083884	0.294448	8835.851562
6949.604964	0.083932	0.294448	8916.258789
6949.605997	0.083818	0.294448	9002.842773
6949.606874	0.083848	0.294448	9076.376953
6949.607736	0.083807	0.294448	9148.619141
6949.608775	0.083998	0.294448	9235.892578
6949.609725	0.083844	0.294448	9315.543945
6950.521320	0.874655	0.310525	404.965057
6950.522205	1.317609	0.310525	1571.048828
6950.523065	1.331803	0.310525	2716.399414
6950.524016	1.304681	0.310525	3957.151367
6950.524949	1.273905	0.310525	5145.704590
6950.525873	1.245538	0.310525	6296.582031
6950.526737	1.218739	0.310525	7349.572266
6950.527721	1.035483	0.310525	8368.488281
6950.528676	0.160272	0.310525	8521.547852
6950.529565	0.083851	0.310525	8596.091797
6950.530482	0.083807	0.310525	8672.943359
6950.531453	0.083884	0.310525	8754.394531
6950.532376	0.083815	0.310525	8831.755859
6950.533237	0.083804	0.310525	8903.911133
6950.534158	0.083822	0.310525	8981.111328
6950.535112	0.083888	0.310525	9061.140625
6950.536030	0.083855	0.310525	9138.119141
6950.536902	0.083881	0.310525	9211.262695
6951.656424	0.867081	0.288320	407.528198
6951.657383	1.321879	0.288320	1675.209839
6951.658315	1.328917	0.288320	2913.760742
6951.659185	1.302360	0.288320	4046.813721
6951.660144	1.271715	0.288320	5266.388672
6951.661090	1.242202	0.288320	6441.511719
6951.662002	1.214608	0.288320	7549.234375
6951.662884	0.967793	0.288320	8402.828125
6951.663853	0.138094	0.288320	8536.641602
6951.664806	0.083698	0.288320	8616.405273
6951.665701	0.083884	0.288320	8691.481445
6951.666621	0.083892	0.288320	8768.662109
6951.667557	0.083793	0.288320	8847.091797
6951.668476	0.083844	0.288320	8924.144531
6951.669338	0.083785	0.288320	8996.367187
6951.670309	0.083851	0.288320	9077.787109
6951.671261	0.083881	0.288320	9157.641602
6951.672140	0.083892	0.288320	9231.381836
6952.583623	0.855608	0.312305	368.767029
6952.584489	1.313331	0.312305	1506.112061
6952.585553	1.328958	0.312305	2920.123047
6952.586435	1.301854	0.312305	4068.358398
6952.587306	1.273770	0.312305	5177.811523
6952.588202	1.245143	0.312305	6293.459473
6952.589233	1.214484	0.312305	7545.591797
6952.590135	0.977856	0.312305	8427.618164
6952.591017	0.152201	0.312305	8561.859375
6952.592014	0.083873	0.312305	8645.481445
6952.592953	0.083862	0.312305	8724.228516
6952.593874	0.083859	0.312305	8801.461914
6952.594739	0.083895	0.312305	8874.031250
6952.595785	0.083760	0.312305	8961.643555
6952.596676	0.083800	0.312305	9036.309570
6952.597551	0.083844	0.312305	9109.672852
6952.598543	0.083859	0.312305	9192.860352
6952.599485	0.083840	0.312305	9271.837891
6953.715674	0.883359	0.293070	404.578583
6953.716552	1.317367	0.293070	1561.226807
6953.717544	1.329404	0.293070	2879.996094
6953.718592	1.297961	0.293070	4240.259766
6953.719503	1.268452	0.293070	5395.819824
6953.720367	1.240723	0.293070	6467.804199
6953.721473	1.208855	0.293070	7804.797852
6953.722474	0.648420	0.293070	8453.866211
6953.723355	0.094889	0.293070	8537.462891
6953.724364	0.083796	0.293070	8622.013672
6953.725420	0.083928	0.293070	8710.641602
6953.726296	0.083870	0.293070	8784.111328
6953.727173	0.083888	0.293070	8857.680664
6953.728278	0.083939	0.293070	8950.433594
6953.729235	0.083928	0.293070	9030.752930
6953.730103	0.083851	0.293070	9103.536133
6953.731122	0.083914	0.293070	9189.043945
6953.732160	0.083837	0.293070	9276.066406
6954.644951	0.883931	0.307685	392.465210
6954.645826	1.316111	0.307685	1544.062256
6954.646767	1.330569	0.307685	2796.127441
6954.647726	1.302477	0.307685	4045.202637
6954.648650	1.272967	0.307685	5221.424805
6954.649510	1.245597	0.307685	6292.638184
6954.650458	1.217194	0.307685	7446.537598
6954.651425	0.996508	0.307685	8410.160156
6954.652324	0.153479	0.307685	8548.137695
6954.653240	0.083800	0.307685	8624.898437
6954.654165	0.083862	0.307685	8702.470703
6954.655112	0.083892	0.307685	8781.916016
6954.655994	0.083855	0.307685	8855.875977
6954.656926	0.083859	0.307685	8934.032227
6954.657880	0.083727	0.307685	9013.907227
6954.658770	0.083914	0.307685	9088.589844
6954.659703	0.083884	0.307685	9166.853516
6954.660642	0.083826	0.307685	9245.565430
6955.776991	0.864192	0.283422	398.392456
6955.777881	1.318656	0.283422	1571.996216
6955.778751	1.332059	0.283422	2730.887939
6955.779730	1.304095	0.283422	4007.597168
6955.780664	1.273290	0.283422	5196.849609
6955.781588	1.244795	0.283422	6347.040039
6955.782452	1.217801	0.283422	7399.220703
6955.783407	1.010720	0.283422	8364.458008
6955.784347	0.159126	0.283422	8514.036133
6955.785218	0.083881	0.283422	8587.095703
6955.786190	0.083892	0.283422	8668.638672
6955.787140	0.083837	0.283422	8748.283203
6955.788031	0.083888	0.283422	8823.027344
6955.788892	0.083818	0.283422	8895.195312
6955.789864	0.083921	0.283422	8976.766602
6955.790816	0.083910	0.283422	9056.648437
6955.791703	0.083917	0.283422	9131.083008
6955.792635	0.083870	0.283422	9209.249023
6956.706242	0.856875	0.310919	370.170013
6956.707116	1.314181	0.310919	1518.764160
6956.708107	1.329917	0.310919	2836.711914
6956.709058	1.301700	0.310919	4074.628906
6956.709984	1.272107	0.310919	5252.599609
6956.710857	1.244535	0.310919	6339.078613
6956.711906	1.213784	0.310919	7612.338379
6956.712785	0.952291	0.310919	8449.402344
6956.713664	0.143258	0.310919	8575.326172
6956.714609	0.083767	0.310919	8654.486328
6956.715591	0.083778	0.310919	8736.756836
6956.716504	0.083793	0.310919	8813.259766
6956.717378	0.083833	0.310919	8886.530273
6956.718471	0.083859	0.310919	8978.187500
6956.719364	0.083778	0.310919	9053.000977
6956.720234	0.083789	0.310919	9125.897461
6956.721121	0.083899	0.310919	9200.315430
6956.722164	0.083752	0.310919	9287.668945
6957.838808	0.864741	0.295108	386.539307
6957.839674	1.316034	0.295108	1526.224731
6957.840584	1.330518	0.295108	2736.995605
6957.841688	1.299141	0.295108	4171.247070
6957.842589	1.269990	0.295108	5315.508301
6957.843459	1.243022	0.295108	6396.937988
6957.844483	1.212166	0.295108	7638.195312
6957.845470	0.824308	0.295108	8451.787109
6957.846341	0.111691	0.295108	8549.069336
6957.847226	0.083727	0.295108	8623.167969
6957.848334	0.083840	0.295108	8716.063477
6957.849221	0.083771	0.295108	8790.368164
6957.850081	0.083749	0.295108	8862.392578
6957.851119	0.083848	0.295108	8949.426758
6957.852093	0.083840	0.295108	9031.086914
6957.852973	0.083807	0.295108	9104.837891
6957.853833	0.083807	0.295108	9176.912109
6957.854934	0.083851	0.295108	9269.232422
6958.767086	0.883337	0.308063	411.635254
6958.767976	1.319476	0.308063	1585.969116
6958.768846	1.331514	0.308063	2744.385986
6958.769804	1.303843	0.308063	3993.467285
6958.770745	1.273312	0.308063	5191.653809
6958.771664	1.244769	0.308063	6335.596680
6958.772529	1.218062	0.308063	7389.219727
6958.773510	1.009534	0.308063	8379.572266
6958.774472	0.152267	0.308063	8526.052734
6958.775358	0.083749	0.308063	8600.253906
6958.776288	0.083884	0.308063	8678.266602
6958.777248	0.083895	0.308063	8758.805664
6958.778154	0.083851	0.308063	8834.775391
6958.779038	0.083862	0.308063	8908.910156
6958.779966	0.083818	0.308063	8986.693359
6958.780914	0.083840	0.308063	9066.173828
6958.781839	0.083870	0.308063	9143.752930
6958.782703	0.083789	0.308063	9216.146484
6959.899136	0.913781	0.287193	440.442200
6959.900024	1.320758	0.287193	1613.275391
6959.900896	1.331148	0.287193	2774.036133
6959.901815	1.303784	0.287193	3972.213867
6959.902775	1.273370	0.287193	5194.649414
6959.903708	1.244612	0.287193	6355.872070
6959.904590	1.217541	0.287193	7429.743652
6959.905577	0.999994	0.287193	8416.737305
6959.906536	0.143203	0.287193	8554.069336
6959.907428	0.083694	0.287193	8628.724609
6959.908304	0.083855	0.287193	8702.181641
6959.909267	0.083804	0.287193	8782.884766
6959.910210	0.083851	0.287193	8861.957031
6959.911088	0.083851	0.287193	8935.578125
6959.911991	0.083837	0.287193	9011.282227
6959.912940	0.083884	0.287193	9090.888672
6959.913871	0.083866	0.287193	9168.967773
6959.914748	0.083859	0.287193	9242.511719
6960.826804	0.859050	0.309940	359.942078
6960.827897	1.327321	0.309940	1810.703369
6960.828817	1.326595	0.309940	3031.171143
6960.829698	1.299514	0.309940	4176.042969
6960.830693	1.268167	0.309940	5437.868652
6960.831687	1.237236	0.309940	6667.681641
6960.832574	1.210613	0.309940	7741.495117
6960.833442	0.849613	0.309940	8478.958984
6960.834542	0.100254	0.309940	8589.238281
6960.835444	0.083734	0.309940	8664.766602
6960.836309	0.083818	0.309940	8737.269531
6960.837294	0.083969	0.309940	8819.978516
6960.838315	0.083840	0.309940	8905.579102
6960.839211	0.083851	0.309940	8980.709961
6960.840078	0.083903	0.309940	9053.453125
6960.841170	0.083917	0.309940	9145.090820
6960.842103	0.083833	0.309940	9223.306641
6960.842980	0.083877	0.309940	9296.867187
6961.961458	0.898619	0.293356	422.351135
6961.962338	1.318722	0.293356	1582.826416
6961.963320	1.329294	0.293356	2888.193604
6961.964371	1.297416	0.293356	4251.777344
6961.965290	1.267767	0.293356	5416.855469
6961.966154	1.240309	0.293356	6488.482422
6961.967210	1.209075	0.293356	7765.265625
6961.968231	0.657147	0.293356	8436.212891
6961.969114	0.095383	0.293356	8520.436523
6961.970094	0.083826	0.293356	8602.585937
6961.971142	0.083954	0.293356	8690.569336
6961.972049	0.083855	0.293356	8766.625977
6961.972908	0.083778	0.293356	8838.591797
6961.974008	0.083921	0.293356	8930.904297
6961.974979	0.083840	0.293356	9012.313477
6961.975864	0.083884	0.293356	9086.550781
6961.976865	0.083804	0.293356	9170.438477
6961.977924	0.083840	0.293356	9259.225586
6962.886648	0.883096	0.315125	422.119751
6962.887533	1.319945	0.315125	1590.271118
6962.888404	1.331308	0.315125	2749.840820
6962.889364	1.303627	0.315125	4001.322510
6962.890304	1.272869	0.315125	5197.818848
6962.891227	1.244300	0.315125	6346.308105
6962.892100	1.217223	0.315125	7408.943359
6962.893078	1.001539	0.315125	8388.449219
6962.894040	0.147418	0.315125	8530.265625
6962.894934	0.083730	0.315125	8605.121094
6962.895854	0.083818	0.315125	8682.234375
6962.896811	0.083840	0.315125	8762.469727
6962.897677	0.083844	0.315125	8835.079102
6962.898555	0.083789	0.315125	8908.645508
6962.899520	0.083862	0.315125	8989.572266
6962.900467	0.083844	0.315125	9068.972656
6962.901362	0.083888	0.315125	9144.052734
6962.902267	0.083771	0.315125	9219.865234
6964.023762	0.869506	0.293481	381.712982
6964.024627	1.315166	0.293481	1519.331543
6964.025601	1.330470	0.293481	2815.209473
6964.026515	1.303085	0.293481	4006.229004
6964.027398	1.274802	0.293481	5131.879395
6964.028320	1.246542	0.293481	6281.190918
6964.029279	1.217476	0.293481	7448.750000
6964.030213	1.034725	0.293481	8415.183594
6964.031094	0.171288	0.293481	8566.087891
6964.032019	0.083767	0.293481	8643.572266
6964.032967	0.083840	0.293481	8723.052734
6964.033891	0.083932	0.293481	8800.605469
6964.034753	0.083855	0.293481	8872.888672
6964.035725	0.083899	0.293481	8954.438477
6964.036663	0.083844	0.293481	9033.083984
6964.037542	0.083866	0.293481	9106.801758
6964.038414	0.083932	0.293481	9179.990234
6964.039382	0.083925	0.293481	9261.229492
6964.946358	0.842992	0.315991	354.899597
6964.947355	1.318275	0.315991	1669.219971
6964.948289	1.328606	0.315991	2910.137939
6964.949222	1.300532	0.315991	4123.534668
6964.950089	1.272092	0.315991	5226.438477
6964.951149	1.240060	0.315991	6540.901855
6964.952041	1.213176	0.315991	7623.055176
6964.952919	0.958176	0.315991	8464.333984
6964.953904	0.140255	0.315991	8602.485352
6964.954862	0.083741	0.315991	8682.709961
6964.955766	0.083800	0.315991	8758.464844
6964.956645	0.083873	0.315991	8832.189453
6964.957662	0.083917	0.315991	8917.533203
6964.958559	0.083855	0.315991	8992.750977
6964.959431	0.083884	0.315991	9065.898437
6964.960350	0.083943	0.315991	9143.041992
6964.961348	0.083848	0.315991	9226.721680
6964.962268	0.083914	0.315991	9303.921875
6966.085565	0.846639	0.294274	356.435181
6966.086507	1.314532	0.294274	1594.724731
6966.087559	1.327471	0.294274	2991.223877
6966.088460	1.299558	0.294274	4162.125977
6966.089330	1.271481	0.294274	5268.314453
6966.090380	1.239276	0.294274	6569.554687
6966.091347	1.210346	0.294274	7739.958984
6966.092231	0.853792	0.294274	8494.710937
6966.093136	0.118718	0.294274	8602.151367
6966.094215	0.083782	0.294274	8692.551758
6966.095093	0.083888	0.294274	8766.205078
6966.095953	0.083906	0.294274	8838.364258
6966.096989	0.083877	0.294274	8925.260742
6966.097949	0.083870	0.294274	9005.775391
6966.098812	0.083888	0.294274	9078.170898
6966.099674	0.083954	0.294274	9150.539062
6966.100786	0.083877	0.294274	9243.810547
6966.101692	0.083833	0.294274	9319.763672
6967.005673	0.910576	0.324265	429.791962
6967.006610	1.323439	0.324265	1669.854004
6967.007542	1.329141	0.324265	2908.613281
6967.008406	1.302524	0.324265	4033.994141
6967.009388	1.271777	0.324265	5282.879395
6967.010350	1.242239	0.324265	6477.913086
6967.011246	1.215073	0.324265	7566.618652
6967.012179	0.956125	0.324265	8458.683594
6967.013112	0.131814	0.324265	8581.666016
6967.014020	0.083705	0.324265	8657.669922
6967.014887	0.083800	0.324265	8730.324219
6967.015857	0.083921	0.324265	8811.727539
6967.016800	0.083793	0.324265	8890.744141
6967.017686	0.083866	0.324265	8965.049805
6967.018594	0.083892	0.324265	9041.223633
6967.019548	0.083804	0.324265	9121.172852
6967.020470	0.083862	0.324265	9198.494141
6967.021332	0.083877	0.324265	9270.795898
6968.148451	0.878818	0.301400	400.741150
6968.149394	1.322479	0.301400	1647.839111
6968.150324	1.329474	0.301400	2884.249756
6968.151193	1.302524	0.301400	4016.143555
6968.152163	1.272063	0.301400	5250.044434
6968.153113	1.242795	0.301400	6430.700195
6968.154001	1.215637	0.301400	7510.186035
6968.154926	0.984858	0.301400	8421.179687
6968.155892	0.139666	0.301400	8556.096680
6968.156816	0.083683	0.301400	8633.419922
6968.157692	0.083899	0.301400	8706.915039
6968.158639	0.083870	0.301400	8786.339844
6968.159585	0.083859	0.301400	8865.669922
6968.160514	0.083895	0.301400	8943.608398
6968.161374	0.083826	0.301400	9015.698242
6968.162340	0.083804	0.301400	9096.652344
6968.163284	0.083789	0.301400	9175.749023
6968.164149	0.083895	0.301400	9248.318359
6969.064407	0.865745	0.324628	379.196167
6969.065286	1.314895	0.324628	1534.988892
6969.066149	1.332338	0.324628	2684.796387
6969.067076	1.305791	0.324628	3895.264648
6969.068043	1.274359	0.324628	5127.569824
6969.068970	1.245901	0.324628	6282.520020
6969.069847	1.218673	0.324628	7351.296387
6969.070878	1.018414	0.324628	8401.281250
6969.071768	0.159829	0.324628	8543.529297
6969.072681	0.083763	0.324628	8620.004883
6969.073544	0.083730	0.324628	8692.264648
6969.074543	0.083855	0.324628	8776.036133
6969.075471	0.083807	0.324628	8853.809570
6969.076348	0.083862	0.324628	8927.356445
6969.077277	0.083793	0.324628	9005.200195
6969.078212	0.083774	0.324628	9083.529297
6969.079141	0.083727	0.324628	9161.311523
6969.080022	0.083815	0.324628	9235.152344
6970.210327	0.918516	0.305155	462.013367
6970.211218	1.323344	0.305155	1641.112549
6970.212095	1.330642	0.305155	2808.085693
6970.213114	1.300298	0.305155	4133.089355
6970.214111	1.267819	0.305155	5397.104492
6970.215016	1.239998	0.305155	6519.302246
6970.215898	1.213641	0.305155	7589.733887
6970.216906	0.833247	0.305155	8429.646484
6970.217838	0.107805	0.305155	8530.121094
6970.218724	0.083752	0.305155	8604.326172
6970.219716	0.083928	0.305155	8687.583008
6970.220714	0.083796	0.305155	8771.211914
6970.221593	0.083855	0.305155	8844.920898
6970.222465	0.083873	0.305155	8918.058594
6970.223465	0.083899	0.305155	9001.957031
6970.224404	0.083925	0.305155	9080.761719
6970.225302	0.083892	0.305155	9156.096680
6970.226178	0.083859	0.305155	9229.556641
6971.125809	0.922694	0.336564	500.100189
6971.126894	1.331675	0.336564	1944.967407
6971.127792	1.324080	0.336564	3133.990967
6971.128655	1.295918	0.336564	4252.368164
6971.129748	1.262541	0.336564	5632.326172
6971.130750	1.231696	0.336564	6866.485352
6971.131625	1.205478	0.336564	7921.278809
6971.132634	0.541648	0.336564	8467.801758
6971.133698	0.086613	0.336564	8559.957031
6971.134568	0.083818	0.336564	8632.878906
6971.135427	0.083870	0.336564	8704.922852
6971.136537	0.083961	0.336564	8798.120117
6971.137494	0.083833	0.336564	8878.348633
6971.138360	0.083892	0.336564	8950.999023
6971.139368	0.083954	0.336564	9035.625000
6971.140413	0.083807	0.336564	9123.204102
6971.141304	0.083862	0.336564	9197.925781
6971.142228	0.083881	0.336564	9275.431641
6972.273086	0.854751	0.307765	364.978668
6972.273952	1.313983	0.307765	1502.887939
6972.274938	1.330269	0.307765	2814.532715
6972.275895	1.302341	0.307765	4060.873535
6972.276782	1.273718	0.307765	5190.661621
6972.277704	1.245392	0.307765	6338.913086
6972.278646	1.216553	0.307765	7484.905762
6972.279583	0.994025	0.307765	8416.306641
6972.280474	0.157562	0.307765	8556.694336
6972.281402	0.083785	0.307765	8634.447266
6972.282362	0.083837	0.307765	8714.930664
6972.283285	0.083855	0.307765	8792.329102
6972.284148	0.083826	0.307765	8864.670898
6972.285113	0.083914	0.307765	8945.647461
6972.286072	0.083873	0.307765	9026.082031
6972.286959	0.083910	0.307765	9100.509766
6972.287876	0.083888	0.307765	9177.434570
6972.288803	0.083859	0.307765	9255.171875
6973.185479	0.857014	0.336745	373.658173
6973.186355	1.314987	0.336745	1525.586426
6973.187343	1.330031	0.336745	2839.656738
6973.188276	1.302253	0.336745	4054.659180
6973.189159	1.273773	0.336745	5179.400879
6973.190100	1.245282	0.336745	6351.211426
6973.191035	1.216241	0.336745	7488.397461
6973.191986	0.982647	0.336745	8422.894531
6973.192864	0.154735	0.336745	8558.751953
6973.193777	0.083796	0.336745	8635.257812
6973.194733	0.083844	0.336745	8715.413086
6973.195660	0.083943	0.336745	8793.228516
6973.196540	0.083914	0.336745	8867.072266
6973.197506	0.083899	0.336745	8948.118164
6973.198434	0.083873	0.336745	9025.952148
6973.199295	0.083939	0.336745	9098.223633
6973.200309	0.083914	0.336745	9183.311523
6973.201235	0.083892	0.336745	9260.995117
6974.335413	0.842838	0.306424	353.992004
6974.336408	1.318356	0.306424	1665.755859
6974.337347	1.328705	0.306424	2913.409668
6974.338270	1.300862	0.306424	4114.104980
6974.339141	1.272565	0.306424	5222.508789
6974.340203	1.240397	0.306424	6539.810059
6974.341085	1.213440	0.306424	7610.063965
6974.341959	0.973055	0.306424	8460.514648
6974.342941	0.143950	0.306424	8601.874023
6974.343880	0.083785	0.306424	8680.548828
6974.344793	0.083866	0.306424	8757.118164
6974.345669	0.083921	0.306424	8830.632812
6974.346693	0.083910	0.306424	8916.556641
6974.347594	0.083855	0.306424	8992.110352
6974.348466	0.083884	0.306424	9065.257812
6974.349338	0.083903	0.306424	9138.420898
6974.350375	0.083877	0.306424	9225.401367
6974.351259	0.083925	0.306424	9299.590820
6975.247310	0.862906	0.338312	380.541748
6975.248175	1.314426	0.338312	1517.520386
6975.249261	1.327379	0.338312	2959.054199
6975.250266	1.296665	0.338312	4262.202637
6975.251143	1.268489	0.338312	5374.666992
6975.252140	1.237804	0.338312	6608.757812
6975.253200	1.206438	0.338312	7887.582031
6975.254107	0.675450	0.338312	8500.215820
6975.254976	0.096951	0.338312	8584.465820
6975.256072	0.083807	0.338312	8676.318359
6975.257041	0.083877	0.338312	8757.594727
6975.257909	0.083877	0.338312	8830.400391
6975.258945	0.083969	0.338312	8917.391602
6975.259982	0.083906	0.338312	9004.402344
6975.260870	0.083877	0.338312	9078.884766
6975.261779	0.083895	0.338312	9155.145508
6975.262851	0.083811	0.338312	9244.991211
6975.263801	0.083822	0.338312	9324.622070
6976.397808	0.908701	0.307253	436.176544
6976.398744	1.324087	0.307253	1675.521851
6976.399673	1.329133	0.307253	2910.286621
6976.400539	1.302268	0.307253	4038.050781
6976.401511	1.271931	0.307253	5274.368164
6976.402479	1.242319	0.307253	6476.933594
6976.403373	1.214952	0.307253	7563.101074
6976.404309	0.959813	0.307253	8461.486328
6976.405220	0.132100	0.307253	8581.829102
6976.406169	0.083727	0.307253	8661.286133
6976.407060	0.083972	0.307253	8736.105469
6976.407969	0.083855	0.307253	8812.330078
6976.408931	0.083895	0.307253	8893.037109
6976.409820	0.083925	0.307253	8967.646484
6976.410728	0.083881	0.307253	9043.810547
6976.411648	0.083829	0.307253	9120.933594
6976.412597	0.083936	0.307253	9200.588867
6976.413474	0.083906	0.307253	9274.174805
6977.310689	0.875402	0.344153	393.930725
6977.311564	1.316122	0.344153	1545.537354
6977.312428	1.332056	0.344153	2696.433594
6977.313434	1.303103	0.344153	4007.355225
6977.314324	1.274282	0.344153	5141.466309
6977.315228	1.245952	0.344153	6267.807129
6977.316112	1.219200	0.344153	7345.580078
6977.317073	1.056903	0.344153	8361.263672
6977.318006	0.173763	0.344153	8523.384766
6977.318883	0.083954	0.344153	8597.012695
6977.319922	0.083921	0.344153	8684.206055
6977.320818	0.083811	0.344153	8759.300781
6977.321740	0.083881	0.344153	8836.638672
6977.322604	0.083837	0.344153	8909.073242
6977.323600	0.083859	0.344153	8992.596680
6977.324521	0.083815	0.344153	9069.790039
6977.325394	0.083906	0.344153	9143.040039
6977.326275	0.083833	0.344153	9216.896484
6978.458042	0.847672	0.304961	357.717621
6978.458905	1.313434	0.304961	1491.211060
6978.459958	1.328936	0.304961	2890.580078
6978.460855	1.301715	0.304961	4058.218506
6978.461736	1.273762	0.304961	5180.403320
6978.462747	1.242861	0.304961	6436.936035
6978.463683	1.214018	0.304961	7573.257324
6978.464604	0.955162	0.304961	8452.961914
6978.465476	0.143507	0.304961	8578.099609
6978.466508	0.083782	0.304961	8664.562500
6978.467400	0.083921	0.304961	8739.419922
6978.468262	0.083840	0.304961	8811.690430
6978.469240	0.083888	0.304961	8893.732422
6978.470181	0.083859	0.304961	8972.643555
6978.471090	0.083811	0.304961	9048.828125
6978.471965	0.083771	0.304961	9122.127930
6978.473006	0.083870	0.304961	9209.436523
6978.473899	0.083833	0.304961	9284.299805
6979.372049	0.915754	0.343343	464.287476
6979.373051	1.328632	0.343343	1795.576294
6979.373948	1.327083	0.343343	2985.969238
6979.374923	1.297515	0.343343	4251.045898
6979.375994	1.263252	0.343343	5603.988770
6979.376912	1.234944	0.343343	6737.666992
6979.377781	1.208156	0.343343	7787.554199
6979.378873	0.605614	0.343343	8448.884766
6979.379872	0.088147	0.343343	8536.943359
6979.380751	0.083738	0.343343	8610.548828
6979.381756	0.083862	0.343343	8694.830078
6979.382813	0.083855	0.343343	8783.464844
6979.383696	0.083899	0.343343	8857.547852
6979.384552	0.083917	0.343343	8929.380859
6979.385651	0.083873	0.343343	9021.557617
6979.386619	0.083844	0.343343	9102.718750
6979.387482	0.083862	0.343343	9175.091797
6979.388523	0.083881	0.343343	9262.411133
6980.516797	0.858593	0.303338	364.043213
6980.517787	1.320806	0.303338	1671.640869
6980.518739	1.328602	0.303338	2936.470215
6980.519638	1.301298	0.303338	4106.336914
6980.520569	1.271957	0.303338	5290.528809
6980.521515	1.241957	0.303338	6465.419922
6980.522420	1.214553	0.303338	7564.590820
6980.523289	0.966940	0.303338	8404.861328
6980.524274	0.133718	0.303338	8536.574219
6980.525231	0.083668	0.303338	8616.644531
6980.526121	0.083870	0.303338	8691.288086
6980.527026	0.083789	0.303338	8767.117187
6980.527987	0.083848	0.303338	8847.694336
6980.528908	0.083881	0.303338	8924.948242
6980.529772	0.083888	0.303338	8997.427734
6980.530715	0.083818	0.303338	9076.468750
6980.531654	0.083778	0.303338	9155.136719
6980.532562	0.083774	0.303338	9231.204102
6981.434821	0.861947	0.341619	373.223053
6981.435685	1.314111	0.341619	1508.615234
6981.436667	1.330305	0.341619	2814.974854
6981.437578	1.303048	0.341619	4002.051758
6981.438461	1.274319	0.341619	5127.275391
6981.439484	1.242938	0.341619	6398.801270
6981.440389	1.215542	0.341619	7498.866699
6981.441307	1.013866	0.341619	8429.595703
6981.442184	0.163033	0.341619	8572.576172
6981.443175	0.083716	0.341619	8655.538086
6981.444084	0.083796	0.341619	8731.708984
6981.444966	0.083818	0.341619	8805.636719
6981.445984	0.083892	0.341619	8891.038086
6981.446876	0.083881	0.341619	8965.859375
6981.447795	0.083855	0.341619	9042.921875
6981.448653	0.083873	0.341619	9114.884766
6981.449627	0.083862	0.341619	9196.566406
6981.450556	0.083811	0.341619	9274.426758
6982.575154	0.940485	0.307125	513.504578
6982.576159	1.331367	0.307125	1851.528564
6982.577052	1.326544	0.307125	3036.132324
6982.577920	1.298401	0.307125	4163.144531
6982.579020	1.264878	0.307125	5554.510254
6982.579945	1.236013	0.307125	6697.822266
6982.580825	1.209833	0.307125	7762.475098
6982.581846	0.684291	0.307125	8461.135742
6982.582833	0.091099	0.307125	8551.049805
6982.583722	0.083851	0.307125	8625.593750
6982.584577	0.083822	0.307125	8697.261719
6982.585666	0.083976	0.307125	8788.710937
6982.586578	0.083914	0.307125	8865.240234
6982.587443	0.083906	0.307125	8937.819336
6982.588420	0.083932	0.307125	9019.820312
6982.589432	0.083859	0.307125	9104.685547
6982.590331	0.083947	0.307125	9180.153320
6982.591191	0.083950	0.307125	9252.350586
6983.497713	0.917651	0.347621	434.966736
6983.498646	1.323157	0.347621	1669.471924
6983.499540	1.329895	0.347621	2858.397949
6983.500459	1.301792	0.347621	4054.744873
6983.501433	1.271060	0.347621	5292.756836
6983.502369	1.242052	0.347621	6455.317383
6983.503236	1.215593	0.347621	7509.236816
6983.504217	0.953383	0.347621	8444.504883
6983.505178	0.130031	0.347621	8569.463867
6983.506067	0.083741	0.347621	8643.910156
6983.506968	0.083796	0.347621	8719.411133
6983.507889	0.083723	0.347621	8796.520508
6983.508821	0.083778	0.347621	8874.601562
6983.509711	0.083826	0.347621	8949.206055
6983.510622	0.083730	0.347621	9025.484375
6983.511581	0.083818	0.347621	9105.866211
6983.512489	0.083738	0.347621	9181.900391
6983.513363	0.083833	0.347621	9255.170898
6984.634336	0.896217	0.315733	408.674957
6984.635223	1.318561	0.315733	1578.238281
6984.636086	1.331382	0.315733	2727.220703
6984.637071	1.303136	0.315733	4010.809570
6984.638028	1.272737	0.315733	5228.818848
6984.638919	1.244938	0.315733	6338.058594
6984.639850	1.217153	0.315733	7471.228516
6984.640808	1.003667	0.315733	8432.741211
6984.641702	0.158057	0.315733	8574.043945
6984.642640	0.083804	0.315733	8652.651367
6984.643541	0.083855	0.315733	8728.205078
6984.644497	0.083859	0.315733	8808.374023
6984.645384	0.083785	0.315733	8882.691406
6984.646297	0.083815	0.315733	8959.213867
6984.647252	0.083829	0.315733	9039.270508
6984.648172	0.083815	0.315733	9116.379883
6984.649037	0.083851	0.315733	9188.911133
6984.650001	0.083822	0.315733	9269.715820
6985.559488	0.851946	0.350735	364.632812
6985.560359	1.313317	0.350735	1508.531616
6985.561223	1.332433	0.350735	2659.753662
6985.562299	1.302206	0.350735	4060.927246
6985.563184	1.273312	0.350735	5187.808105
6985.564062	1.246022	0.350735	6281.815430
6985.564982	1.217860	0.350735	7402.246582
6985.566015	0.985609	0.350735	8420.380859
6985.566937	0.144877	0.350735	8553.957031
6985.567793	0.083716	0.350735	8625.618164
6985.568861	0.083833	0.350735	8715.151367
6985.569753	0.083844	0.350735	8789.940430
6985.570672	0.083895	0.350735	8867.040039
6985.571533	0.083873	0.350735	8939.254883
6985.572581	0.083800	0.350735	9027.077148
6985.573480	0.083811	0.350735	9102.422852
6985.574355	0.083873	0.350735	9175.811523
6985.575362	0.083826	0.350735	9260.223633
6986.694690	0.933812	0.314335	481.847107
6986.695693	1.329983	0.314335	1815.819824
6986.696591	1.326929	0.314335	3007.401855
6986.697562	1.297123	0.314335	4266.908203
6986.698619	1.263413	0.314335	5602.335937
6986.699530	1.235259	0.314335	6727.656738
6986.700394	1.208434	0.314335	7771.743652
6986.701492	0.584883	0.314335	8413.945312
6986.702477	0.087744	0.314335	8500.373047
6986.703373	0.083815	0.314335	8575.470703
6986.704374	0.083961	0.314335	8659.515625
6986.705439	0.083910	0.314335	8748.879883
6986.706326	0.083979	0.314335	8823.370117
6986.707208	0.083950	0.314335	8897.414062
6986.708298	0.083958	0.314335	8988.927734
6986.709255	0.083870	0.314335	9069.191406
6986.710125	0.083928	0.314335	9142.208984
6986.711006	0.083928	0.314335	9216.149414
6987.622840	0.856615	0.353317	361.491547
6987.623830	1.321523	0.353317	1669.799805
6987.624754	1.328947	0.353317	2897.746582
6987.625637	1.302294	0.353317	4047.671875
6987.626551	1.273359	0.353317	5211.522461
6987.627527	1.243202	0.353317	6424.887695
6987.628458	1.214993	0.353317	7556.045898
6987.629327	1.025365	0.353317	8447.087891
6987.630298	0.147850	0.353317	8590.650391
6987.631212	0.083727	0.353317	8667.176758
6987.632135	0.083870	0.353317	8744.588867
6987.633013	0.083807	0.353317	8818.171875
6987.633982	0.083848	0.353317	8899.419922
6987.634935	0.083855	0.353317	8979.333984
6987.635825	0.083884	0.353317	9053.991211
6987.636735	0.083855	0.353317	9130.298828
6987.637654	0.083906	0.353317	9207.408203
6987.638582	0.083873	0.353317	9285.242187
6988.757468	0.881265	0.308974	389.518951
6988.758345	1.316378	0.308974	1543.982544
6988.759280	1.330686	0.308974	2788.174072
6988.760237	1.302506	0.308974	4034.672363
6988.761160	1.273121	0.308974	5209.763184
6988.762023	1.245725	0.308974	6284.823730
6988.762973	1.217300	0.308974	7441.258789
6988.763938	0.995793	0.308974	8402.199219
6988.764840	0.153538	0.308974	8540.690430
6988.765709	0.083734	0.308974	8613.455078
6988.766683	0.083752	0.308974	8695.030273
6988.767644	0.083818	0.308974	8775.580078
6988.768532	0.083848	0.308974	8850.037109
6988.769443	0.083818	0.308974	8926.395508
6988.770396	0.083815	0.308974	9006.270508
6988.771283	0.083859	0.308974	9080.653320
6988.772212	0.083862	0.308974	9158.561523
6988.773120	0.083844	0.308974	9234.691406
6989.686207	0.851060	0.351847	360.849243
6989.687079	1.313423	0.351847	1506.153931
6989.688046	1.330532	0.351847	2792.778809
6989.689015	1.301785	0.351847	4054.208008
6989.689931	1.272843	0.351847	5220.132324
6989.690808	1.245249	0.351847	6312.215820
6989.691850	1.214612	0.351847	7577.841309
6989.692751	0.969591	0.351847	8451.442383
6989.693627	0.147667	0.351847	8580.798828
6989.694536	0.083888	0.351847	8657.052734
6989.695563	0.083800	0.351847	8743.115234
6989.696451	0.083877	0.351847	8817.597656
6989.697316	0.083899	0.351847	8890.169922
6989.698307	0.083837	0.351847	8973.251953
6989.699220	0.083844	0.351847	9049.801758
6989.700137	0.083877	0.351847	9126.716797
6989.701000	0.083851	0.351847	9199.080078
6989.702047	0.083815	0.351847	9286.833984
6990.819258	0.846321	0.311685	356.301025
6990.820149	1.313496	0.311685	1526.626099
6990.821243	1.326965	0.311685	2978.326172
6990.822215	1.297456	0.311685	4239.453125
6990.823088	1.269236	0.311685	5347.496094
6990.824118	1.237412	0.311685	6622.030273
6990.825170	1.206259	0.311685	7891.014160
6990.826058	0.699521	0.311685	8512.189453
6990.826999	0.098416	0.311685	8604.798828
6990.828058	0.083793	0.311685	8693.535156
6990.828997	0.083873	0.311685	8772.291992
6990.829859	0.083899	0.311685	8844.613281
6990.830929	0.083917	0.311685	8934.404297
6990.831944	0.083840	0.311685	9019.501953
6990.832839	0.083829	0.311685	9094.529297
6990.833819	0.083899	0.311685	9176.750000
6990.834855	0.083888	0.311685	9263.658203
6990.835762	0.083851	0.311685	9339.710937
6991.748539	0.846888	0.348193	358.233795
6991.749458	1.318345	0.348193	1569.792603
6991.750424	1.329294	0.348193	2853.891113
6991.751346	1.301876	0.348193	4054.220947
6991.752217	1.273557	0.348193	5163.489258
6991.753195	1.243682	0.348193	6379.809570
6991.754167	1.214788	0.348193	7560.583008
6991.755061	0.990809	0.348193	8446.366211
6991.755980	0.154706	0.348193	8588.541016
6991.756906	0.083734	0.348193	8666.079102
6991.757856	0.083837	0.348193	8745.723633
6991.758734	0.083815	0.348193	8819.312500
6991.759644	0.083829	0.348193	8895.597656
6991.760603	0.083914	0.348193	8976.070312
6991.761529	0.083914	0.348193	9053.774414
6991.762407	0.083833	0.348193	9127.379883
6991.763369	0.083888	0.348193	9208.080078
6991.764294	0.083877	0.348193	9285.666016
6992.882694	0.927517	0.307737	452.628357
6992.883620	1.323721	0.307737	1678.393799
6992.884498	1.330195	0.307737	2846.305176
6992.885412	1.302275	0.307737	4036.584961
6992.886370	1.271792	0.307737	5254.961914
6992.887307	1.242975	0.307737	6419.629395
6992.888184	1.216388	0.307737	7486.401367
6992.889148	0.986305	0.307737	8437.199219
6992.890091	0.135557	0.307737	8565.029297
6992.891006	0.083719	0.307737	8641.632812
6992.891866	0.083844	0.307737	8713.738281
6992.892840	0.083771	0.307737	8795.331055
6992.893768	0.083910	0.307737	8873.199219
6992.894629	0.083906	0.307737	8945.442383
6992.895609	0.083804	0.307737	9027.570312
6992.896529	0.083873	0.307737	9104.733398
6992.897439	0.083873	0.307737	9181.057617
6992.898301	0.083917	0.307737	9253.394531
6993.811929	0.866719	0.349861	383.956390
6993.812796	1.315525	0.349861	1524.516479
6993.813668	1.332217	0.349861	2686.209473
6993.814706	1.302301	0.349861	4037.998047
6993.815616	1.272905	0.349861	5196.341797
6993.816492	1.245619	0.349861	6287.503906
6993.817374	1.218168	0.349861	7361.927734
6993.818422	0.984708	0.349861	8393.902344
6993.819327	0.145177	0.349861	8525.287109
6993.820201	0.083796	0.349861	8598.525391
6993.821221	0.083888	0.349861	8684.090820
6993.822143	0.083785	0.349861	8761.340820
6993.823060	0.083932	0.349861	8838.306641
6993.823919	0.083914	0.349861	8910.388672
6993.824969	0.083866	0.349861	8998.448242
6993.825843	0.083785	0.349861	9071.676758
6993.826719	0.083859	0.349861	9145.136719
6993.827678	0.083866	0.349861	9225.564453
6994.947093	0.899930	0.305098	465.264038
6994.948120	1.329957	0.305098	1831.130127
6994.949001	1.327017	0.305098	3000.231689
6994.949864	1.299855	0.305098	4122.006348
6994.950937	1.266453	0.305098	5480.910156
6994.951874	1.237339	0.305098	6640.296875
6994.952745	1.211012	0.305098	7695.088379
6994.953695	0.795604	0.305098	8450.912109
6994.954733	0.096097	0.305098	8550.661133
6994.955626	0.083785	0.305098	8625.481445
6994.956495	0.083873	0.305098	8698.367187
6994.957547	0.083855	0.305098	8786.583008
6994.958487	0.083829	0.305098	8865.382812
6994.959367	0.083873	0.305098	8939.191406
6994.960299	0.083771	0.305098	9017.265625
6994.961359	0.083844	0.305098	9106.140625
6994.962246	0.083877	0.305098	9180.539062
6994.963107	0.083855	0.305098	9252.738281
6995.873760	0.859252	0.345740	396.974304
6995.874651	1.318506	0.345740	1571.762939
6995.875518	1.331682	0.345740	2726.331299
6995.876591	1.300254	0.345740	4121.503906
6995.877636	1.266877	0.345740	5445.390625
6995.878560	1.238192	0.345740	6589.479980
6995.879428	1.211514	0.345740	7641.074219
6995.880516	0.699261	0.345740	8401.871094
6995.881515	0.091677	0.345740	8493.457031
6995.882397	0.083646	0.345740	8567.233398
6995.883385	0.083895	0.345740	8650.122070
6995.884414	0.083782	0.345740	8736.333008
6995.885318	0.083873	0.345740	8812.154297
6995.886176	0.083873	0.345740	8884.117187
6995.887252	0.083851	0.345740	8974.340820
6995.888250	0.083789	0.345740	9057.961914
6995.889131	0.083884	0.345740	9131.864258
6995.890136	0.083925	0.345740	9216.208008
6997.010890	0.868011	0.301686	377.584991
6997.011758	1.315104	0.301686	1519.095093
6997.012748	1.329910	0.301686	2835.705566
6997.013702	1.301371	0.301686	4077.213379
6997.014601	1.272828	0.301686	5221.486328
6997.015518	1.244370	0.301686	6362.573730
6997.016485	1.215352	0.301686	7537.818848
6997.017411	0.981559	0.301686	8446.742187
6997.018280	0.153311	0.301686	8579.968750
6997.019247	0.083741	0.301686	8660.946289
6997.020172	0.083789	0.301686	8738.451172
6997.021104	0.083881	0.301686	8816.627930
6997.021964	0.083818	0.301686	8888.711914
6997.022929	0.083837	0.301686	8969.614258
6997.023860	0.083892	0.301686	9047.717773
6997.024737	0.083873	0.301686	9121.274414
6997.025706	0.083884	0.301686	9202.558594
6997.026650	0.083782	0.301686	9281.648437
6997.936066	0.861383	0.343585	371.256073
6997.936940	1.314232	0.343585	1519.895020
6997.937890	1.330712	0.343585	2784.071045
6997.938825	1.302957	0.343585	4002.335449
6997.939750	1.273616	0.343585	5180.429687
6997.940620	1.246117	0.343585	6264.551270
6997.941625	1.216736	0.343585	7487.371094
6997.942555	1.015584	0.343585	8431.863281
6997.943425	0.167095	0.343585	8577.235352
6997.944457	0.083734	0.343585	8663.649414
6997.945343	0.083928	0.343585	8738.009766
6997.946241	0.083881	0.343585	8813.334961
6997.947117	0.083829	0.343585	8886.769531
6997.948052	0.083862	0.343585	8965.180664
6997.949002	0.083804	0.343585	9044.793945
6997.949887	0.083833	0.343585	9118.986328
6997.950873	0.083925	0.343585	9201.736328
6997.951785	0.083833	0.343585	9278.192383
6999.074770	0.865031	0.302657	384.938599
6999.075647	1.316338	0.302657	1539.366943
6999.076594	1.330554	0.302657	2799.401855
6999.077650	1.299404	0.302657	4171.572754
6999.078534	1.270836	0.302657	5294.991699
6999.079399	1.243744	0.302657	6370.830078
6999.080460	1.212246	0.302657	7657.023437
6999.081414	0.851338	0.302657	8469.200195
6999.082284	0.117942	0.302657	8571.809570
6999.083194	0.083804	0.302657	8648.071289
6999.084274	0.083833	0.302657	8738.611328
6999.085168	0.083815	0.302657	8813.541992
6999.086030	0.083837	0.302657	8885.809570
6999.087042	0.083855	0.302657	8970.670898
6999.088009	0.083767	0.302657	9051.673828
6999.088887	0.083851	0.302657	9125.294922
6999.089774	0.083848	0.302657	9199.667969
6999.090889	0.083910	0.302657	9293.227539
6999.998954	0.886304	0.349055	420.107971
6999.999917	1.322593	0.349055	1693.764893
7000.000847	1.328353	0.349055	2929.133301
7000.001717	1.301591	0.349055	4061.517090
7000.002698	1.271181	0.349055	5308.544922
7000.003600	1.241880	0.349055	6428.720703
7000.004519	1.214703	0.349055	7545.033203
7000.005395	0.949871	0.349055	8377.120117
7000.006519	0.112789	0.349055	8503.895508
7000.007547	0.083778	0.349055	8590.019531
7000.008435	0.083807	0.349055	8664.440430
7000.009366	0.083822	0.349055	8742.478516
7000.010443	0.083804	0.349055	8832.735352
7000.011381	0.083925	0.349055	8911.457031
7000.012247	0.083870	0.349055	8984.087891
7000.013310	0.083925	0.349055	9073.299805
7000.014318	0.083833	0.349055	9157.803711
7000.015210	0.083892	0.349055	9232.634766
7001.139710	0.910455	0.296345	440.660370
7001.140590	1.320286	0.296345	1602.511841
7001.141528	1.329822	0.296345	2849.884766
7001.142462	1.301521	0.296345	4065.505371
7001.143389	1.271935	0.296345	5244.588867
7001.144267	1.244619	0.296345	6337.364258
7001.145225	1.216333	0.296345	7502.611328
7001.146160	0.969895	0.296345	8409.462891
7001.147092	0.138790	0.296345	8538.815430
7001.147952	0.083782	0.296345	8610.868164
7001.148932	0.083844	0.296345	8693.035156
7001.149856	0.083899	0.296345	8770.557617
7001.150717	0.083811	0.296345	8842.718750
7001.151701	0.083826	0.296345	8925.203125
7001.152630	0.083881	0.296345	9003.127930
7001.153526	0.083925	0.296345	9078.324219
7001.154407	0.083844	0.296345	9152.190430
7001.155374	0.083822	0.296345	9233.246094
7002.060792	0.902047	0.342469	425.766235
7002.061681	1.319352	0.342469	1598.669922
7002.062555	1.331118	0.342469	2762.067139
7002.063540	1.302433	0.342469	4044.963379
7002.064498	1.271136	0.342469	5262.711914
7002.065417	1.242990	0.342469	6405.019531
7002.066305	1.215912	0.342469	7484.749023
7002.067333	0.920493	0.342469	8431.015625
7002.068233	0.127603	0.342469	8545.858398
7002.069111	0.083767	0.342469	8619.406250
7002.070045	0.083848	0.342469	8697.719727
7002.071019	0.083763	0.342469	8779.305664
7002.071936	0.083884	0.342469	8856.227539
7002.072816	0.083807	0.342469	8929.978516
7002.073825	0.083833	0.342469	9014.566406
7002.074707	0.083800	0.342469	9088.478516
7002.075625	0.083870	0.342469	9165.470703
7002.076501	0.083851	0.342469	9238.924805
7003.206074	0.867543	0.291092	365.235504
7003.207170	1.328119	0.291092	1820.853760
7003.208054	1.327789	0.291092	2994.619629
7003.208919	1.300906	0.291092	4119.903320
7003.209953	1.268240	0.291092	5431.263184
7003.210920	1.238503	0.291092	6628.895996
7003.211798	1.211862	0.291092	7692.910645
7003.212681	0.853971	0.291092	8446.966797
7003.213788	0.101177	0.291092	8558.969727
7003.214682	0.083811	0.291092	8633.896484
7003.215546	0.083906	0.291092	8706.391602
7003.216609	0.083987	0.291092	8795.669922
7003.217582	0.083822	0.291092	8877.228516
7003.218454	0.083961	0.291092	8950.442383
7003.219331	0.083903	0.291092	9024.025391
7003.220448	0.083914	0.291092	9117.756836
7003.221342	0.083921	0.291092	9192.782227
7003.222205	0.083903	0.291092	9265.190430
7004.123589	0.858937	0.347581	372.778534
7004.124457	1.314100	0.347581	1513.417725
7004.125444	1.330151	0.347581	2826.277100
7004.126399	1.301880	0.347581	4069.572266
7004.127292	1.273297	0.347581	5206.626465
7004.128199	1.245212	0.347581	6336.034180
7004.129139	1.216333	0.347581	7479.387207
7004.130086	0.976523	0.347581	8404.155273
7004.130980	0.152538	0.347581	8540.524414
7004.131903	0.083785	0.347581	8617.858398
7004.132862	0.083928	0.347581	8698.345703
7004.133781	0.083851	0.347581	8775.405273
7004.134654	0.083998	0.347581	8848.735352
7004.135619	0.083895	0.347581	8929.694336
7004.136543	0.083844	0.347581	9007.166016
7004.137473	0.083892	0.347581	9085.185547
7004.138335	0.083895	0.347581	9157.502930
7004.139439	0.083917	0.347581	9250.147461
7005.272547	0.873860	0.291882	406.344818
7005.273431	1.318912	0.291882	1572.263428
7005.274350	1.331067	0.291882	2795.513916
7005.275272	1.302814	0.291882	3996.708252
7005.276230	1.272850	0.291882	5216.098633
7005.277110	1.245363	0.291882	6312.017578
7005.278019	1.217439	0.291882	7418.669434
7005.278977	1.016030	0.291882	8392.026367
7005.279916	0.158060	0.291882	8540.445312
7005.280791	0.083796	0.291882	8613.767578
7005.281757	0.083884	0.291882	8694.799805
7005.282679	0.083848	0.291882	8772.107422
7005.283560	0.083892	0.291882	8846.015625
7005.284519	0.083921	0.291882	8926.496094
7005.285468	0.083881	0.291882	9006.098633
7005.286392	0.084031	0.291882	9083.743164
7005.287250	0.083877	0.291882	9155.709961
7005.288211	0.083848	0.291882	9236.287109
7006.184423	0.862203	0.349269	401.786774
7006.185312	1.318066	0.349269	1573.547852
7006.186195	1.330034	0.349269	2747.968018
7006.187245	1.300221	0.349269	4113.200195
7006.188137	1.271162	0.349269	5247.076660
7006.189019	1.244092	0.349269	6344.365723
7006.190027	1.214132	0.349269	7568.210937
7006.190946	0.917732	0.349269	8411.606445
7006.191882	0.125284	0.349269	8528.873047
7006.192748	0.083727	0.349269	8601.380859
7006.193797	0.083848	0.349269	8689.336914
7006.194686	0.083793	0.349269	8763.829102
7006.195559	0.083873	0.349269	8837.050781
7006.196555	0.083822	0.349269	8920.537109
7006.197494	0.083767	0.349269	8999.194336
7006.198412	0.083873	0.349269	9076.190430
7006.199277	0.083877	0.349269	9148.744141
7006.200316	0.083961	0.349269	9235.979492
7007.340500	0.864668	0.287217	378.724548
7007.341379	1.316239	0.287217	1535.698730
7007.342240	1.331404	0.287217	2682.037598
7007.343358	1.300833	0.287217	4136.368164
7007.344232	1.271814	0.287217	5247.933594
7007.345103	1.244740	0.287217	6332.102051
7007.346144	1.213184	0.287217	7595.026367
7007.347132	0.859080	0.287217	8443.796875
7007.348011	0.117524	0.287217	8547.100586
7007.348872	0.083840	0.287217	8619.287109
7007.349999	0.083958	0.287217	8713.907227
7007.350905	0.083899	0.287217	8789.919922
7007.351772	0.083976	0.287217	8862.726562
7007.352839	0.084005	0.287217	8952.360352
7007.353817	0.083961	0.287217	9034.474609
7007.354707	0.084009	0.287217	9109.242187
7007.355568	0.083873	0.287217	9181.457031
7007.356686	0.083987	0.287217	9275.354492
7008.245757	0.918706	0.353785	440.978882
7008.246643	1.320146	0.353785	1610.628662
7008.247504	1.331001	0.353785	2756.620605
7008.248462	1.302623	0.353785	4004.533691
7008.249419	1.272448	0.353785	5222.266113
7008.250314	1.244861	0.353785	6336.416504
7008.251235	1.217234	0.353785	7457.488770
7008.252200	0.999745	0.353785	8422.242187
7008.253136	0.143097	0.353785	8556.180664
7008.254014	0.083749	0.353785	8629.711914
7008.254981	0.083774	0.353785	8710.721680
7008.255904	0.083807	0.353785	8788.076172
7008.256832	0.083870	0.353785	8865.907227
7008.257694	0.083936	0.353785	8938.259766
7008.258671	0.083855	0.353785	9020.186523
7008.259620	0.083796	0.353785	9099.708984
7008.260492	0.083818	0.353785	9172.798828
7008.261402	0.083833	0.353785	9249.086914
7009.403323	0.849829	0.291583	359.477692
7009.404239	1.316188	0.291583	1565.105591
7009.405211	1.329569	0.291583	2857.446777
7009.406134	1.301847	0.291583	4059.051514
7009.407006	1.273678	0.291583	5169.698730
7009.407981	1.244106	0.291583	6382.702637
7009.408939	1.215374	0.291583	7547.030273
7009.409831	1.004740	0.291583	8443.258789
7009.410727	0.161276	0.291583	8587.761719
7009.411657	0.083690	0.291583	8665.593750
7009.412591	0.083884	0.291583	8743.941406
7009.413471	0.083815	0.291583	8817.698242
7009.414439	0.083928	0.291583	8898.940430
7009.415384	0.083925	0.291583	8978.249023
7009.416277	0.083921	0.291583	9053.190430
7009.417189	0.083983	0.291583	9129.783203
7009.418115	0.083848	0.291583	9207.425781
7009.419068	0.083877	0.291583	9287.360352
7010.307522	0.856351	0.358019	366.518372
7010.308393	1.313437	0.358019	1510.522461
7010.309364	1.330353	0.358019	2802.294922
7010.310332	1.301565	0.358019	4062.209717
7010.311260	1.272133	0.358019	5242.749023
7010.312131	1.244725	0.358019	6326.904785
7010.313177	1.214030	0.358019	7596.779785
7010.314062	0.969056	0.358019	8454.394531
7010.314940	0.148081	0.358019	8584.410156
7010.315888	0.083895	0.358019	8663.943359
7010.316885	0.083822	0.358019	8747.513672
7010.317783	0.083862	0.358019	8822.822266
7010.318668	0.083914	0.358019	8897.085937
7010.319661	0.083961	0.358019	8980.458984
7010.320577	0.083837	0.358019	9057.252930
7010.321493	0.083903	0.358019	9134.107422
7010.322363	0.083837	0.358019	9207.044922
7010.323399	0.083921	0.358019	9293.987305
7011.471298	0.854176	0.292482	365.587311
7011.472324	1.320330	0.292482	1720.245361
7011.473327	1.325944	0.292482	3050.166748
7011.474214	1.298437	0.292482	4201.880859
7011.475076	1.269708	0.292482	5296.369141
7011.476179	1.237357	0.292482	6661.174316
7011.477076	1.209895	0.292482	7746.450195
7011.477952	0.856366	0.292482	8496.626953
7011.478950	0.112130	0.292482	8608.533203
7011.479954	0.083782	0.292482	8692.650391
7011.480851	0.083917	0.292482	8767.923828
7011.481720	0.083855	0.292482	8840.793945
7011.482809	0.083921	0.292482	8932.183594
7011.483727	0.083910	0.292482	9009.212891
7011.484606	0.083899	0.292482	9082.959961
7011.485590	0.083961	0.292482	9165.578125
7011.486594	0.083840	0.292482	9249.753906
7011.487479	0.083840	0.292482	9323.952148
7012.370371	0.870970	0.359030	373.646301
7012.371354	1.321926	0.359030	1673.099854
7012.372291	1.328580	0.359030	2917.979492
7012.373169	1.301979	0.359030	4061.116699
7012.374104	1.272594	0.359030	5250.992187
7012.375065	1.242634	0.359030	6445.163574
7012.375982	1.214729	0.359030	7559.070312
7012.376865	1.004956	0.359030	8446.446289
7012.377813	0.145408	0.359030	8584.292969
7012.378755	0.083789	0.359030	8663.222656
7012.379648	0.083866	0.359030	8738.115234
7012.380633	0.083862	0.359030	8820.719727
7012.381590	0.083925	0.359030	8901.035156
7012.382509	0.083925	0.359030	8978.162109
7012.383370	0.083873	0.359030	9050.376953
7012.384336	0.083862	0.359030	9131.387695
7012.385271	0.083862	0.359030	9209.798828
7012.386139	0.083914	0.359030	9282.635742
7013.535170	0.852323	0.292454	366.498901
7013.536030	1.313441	0.292454	1496.058350
7013.536997	1.331012	0.292454	2783.146973
7013.537935	1.303143	0.292454	4005.495361
7013.538822	1.274707	0.292454	5136.160156
7013.539742	1.246696	0.292454	6283.120117
7013.540659	1.217758	0.292454	7399.803711
7013.541627	1.038845	0.292454	8405.406250
7013.542520	0.172343	0.292454	8559.308594
7013.543450	0.083906	0.292454	8637.341797
7013.544395	0.083785	0.292454	8716.518555
7013.545281	0.083829	0.292454	8790.791016
7013.546190	0.083851	0.292454	8867.011719
7013.547129	0.083859	0.292454	8945.754883
7013.548070	0.083833	0.292454	9024.641602
7013.548965	0.083873	0.292454	9099.708008
7013.549870	0.083844	0.292454	9175.586914
7013.550842	0.083866	0.292454	9257.104492
7014.432266	0.914242	0.355058	455.292511
7014.433207	1.325142	0.355058	1702.250732
7014.434076	1.329474	0.355058	2857.563477
7014.435104	1.298119	0.355058	4192.029785
7014.436139	1.265409	0.355058	5501.728027
7014.437041	1.237683	0.355058	6618.118164
7014.438006	1.209232	0.355058	7785.027344
7014.439062	0.614579	0.355058	8434.022461
7014.440002	0.090311	0.355058	8518.915039
7014.440864	0.083796	0.355058	8591.147461
7014.441927	0.084031	0.355058	8680.471680
7014.442920	0.083895	0.355058	8763.779297
7014.443807	0.083899	0.355058	8838.197266
7014.444771	0.083961	0.355058	8919.135742
7014.445808	0.083958	0.355058	9006.199219
7014.446710	0.083881	0.355058	9081.859375
7014.447570	0.083892	0.355058	9154.005859
7014.448642	0.083972	0.355058	9244.024414
7015.599568	0.875237	0.292578	391.230865
7015.600446	1.316114	0.292578	1546.779297
7015.601461	1.328994	0.292578	2895.708496
7015.602527	1.297137	0.292578	4278.457031
7015.603409	1.268115	0.292578	5396.934570
7015.604278	1.239749	0.292578	6474.276367
7015.605405	1.207416	0.292578	7835.033691
7015.606378	0.660139	0.292578	8477.348633
7015.607250	0.095552	0.292578	8560.669922
7015.608266	0.083895	0.292578	8645.907227
7015.609310	0.083855	0.292578	8733.452148
7015.610198	0.083925	0.292578	8807.977539
7015.611128	0.083892	0.292578	8885.997070
7015.612188	0.083928	0.292578	8974.960937
7015.613133	0.083917	0.292578	9054.262695
7015.613995	0.083910	0.292578	9126.592773
7015.615038	0.083987	0.292578	9214.191406
7015.616058	0.083895	0.292578	9299.764648
7016.496125	0.922332	0.350010	451.942444
7016.497024	1.321695	0.350010	1640.146729
7016.497948	1.329485	0.350010	2868.590820
7016.498815	1.302759	0.350010	3998.082764
7016.499821	1.271547	0.350010	5277.258789
7016.500754	1.242352	0.350010	6436.373535
7016.501634	1.215861	0.350010	7506.331055
7016.502556	1.005132	0.350010	8433.062500
7016.503512	0.147722	0.350010	8574.285156
7016.504440	0.083628	0.350010	8651.891602
7016.505313	0.083844	0.350010	8725.087891
7016.506224	0.083793	0.350010	8801.422852
7016.507180	0.083826	0.350010	8881.560547
7016.508099	0.083807	0.350010	8958.579102
7016.508970	0.083844	0.350010	9031.607422
7016.509946	0.083840	0.350010	9113.435547
7016.510875	0.083829	0.350010	9191.313477
7016.511739	0.083884	0.350010	9263.789062
7017.662466	0.913770	0.285432	440.436920
7017.663361	1.321750	0.285432	1623.403442
7017.664236	1.331034	0.285432	2788.058105
7017.665189	1.302810	0.285432	4029.636230
7017.666167	1.271455	0.285432	5273.119141
7017.667095	1.242799	0.285432	6426.436523
7017.667967	1.216205	0.285432	7486.966797
7017.669030	0.890068	0.285432	8433.109375
7017.669918	0.124541	0.285432	8543.702148
7017.670792	0.083785	0.285432	8616.930664
7017.671650	0.083833	0.285432	8688.859375
7017.672701	0.083833	0.285432	8776.967773
7017.673574	0.083881	0.285432	8850.195312
7017.674448	0.083888	0.285432	8923.513672
7017.675429	0.083979	0.285432	9005.897461
7017.676366	0.083939	0.285432	9084.548828
7017.677290	0.083785	0.285432	9161.966797
7017.678161	0.083965	0.285432	9235.100586
7018.558978	0.901681	0.345639	445.430359
7018.559854	1.319821	0.345639	1601.593018
7018.560762	1.329576	0.345639	2808.848389
7018.561850	1.297822	0.345639	4220.878906
7018.562794	1.267361	0.345639	5417.267578
7018.563668	1.240503	0.345639	6501.467285
7018.564692	1.209642	0.345639	7740.141113
7018.565725	0.668676	0.345639	8430.882812
7018.566610	0.095643	0.345639	8515.527344
7018.567559	0.083862	0.345639	8595.112305
7018.568620	0.083895	0.345639	8684.125000
7018.569549	0.083888	0.345639	8762.056641
7018.570419	0.083917	0.345639	8835.064453
7018.571480	0.083826	0.345639	8924.003906
7018.572488	0.083818	0.345639	9008.493164
7018.573377	0.083906	0.345639	9083.085937
7018.574340	0.083895	0.345639	9163.876953
7018.575376	0.083954	0.345639	9250.853516
7019.728340	0.878218	0.279076	384.659363
7019.729204	1.315485	0.279076	1521.238037
7019.730190	1.330155	0.279076	2832.770996
7019.731143	1.301920	0.279076	4073.500977
7019.732023	1.273447	0.279076	5194.134766
7019.732932	1.245242	0.279076	6326.059570
7019.733897	1.216201	0.279076	7499.693848
7019.734827	0.994944	0.279076	8424.991211
7019.735704	0.157467	0.279076	8563.089844
7019.736639	0.083763	0.279076	8641.408203
7019.737606	0.083826	0.279076	8722.467773
7019.738494	0.083917	0.279076	8796.986328
7019.739543	0.083844	0.279076	8884.938477
7019.740511	0.083881	0.279076	8966.134766
7019.741432	0.083796	0.279076	9043.311523
7019.742294	0.083910	0.279076	9115.641602
7019.743268	0.083936	0.279076	9197.394531
7019.744228	0.083910	0.279076	9277.948242
7020.623813	0.862939	0.342171	374.515747
7020.624687	1.314891	0.342171	1523.730835
7020.625741	1.328181	0.342171	2923.633789
7020.626647	1.300620	0.342171	4101.995605
7020.627530	1.272554	0.342171	5225.660645
7020.628544	1.241741	0.342171	6484.785645
7020.629478	1.212759	0.342171	7617.502441
7020.630412	0.911920	0.342171	8469.236328
7020.631273	0.131909	0.342171	8582.810547
7020.632324	0.083687	0.342171	8670.764648
7020.633200	0.083870	0.342171	8744.234375
7020.634068	0.083870	0.342171	8817.033203
7020.635026	0.083884	0.342171	8897.394531
7020.635971	0.083837	0.342171	8976.620117
7020.636878	0.083837	0.342171	9052.660156
7020.637750	0.083829	0.342171	9125.759766
7020.638772	0.083862	0.342171	9211.466797
7020.639666	0.083822	0.342171	9286.403320
7021.790136	0.852872	0.278544	359.059235
7021.791190	1.325039	0.278544	1755.650513
7021.792199	1.325193	0.278544	3092.770020
7021.793095	1.297090	0.278544	4254.962402
7021.794087	1.265944	0.278544	5510.778320
7021.795156	1.233127	0.278544	6828.991699
7021.796067	1.205500	0.278544	7927.202637
7021.796939	0.665533	0.278544	8507.547852
7021.798044	0.088564	0.278544	8605.411133
7021.799006	0.083826	0.278544	8686.051758
7021.799881	0.083818	0.278544	8759.392578
7021.800879	0.083914	0.278544	8843.138672
7021.801931	0.083840	0.278544	8931.338867
7021.802824	0.083895	0.278544	9006.257812
7021.803708	0.083851	0.278544	9080.382812
7021.804803	0.083840	0.278544	9172.187500
7021.805752	0.083906	0.278544	9251.814453
7021.806613	0.083939	0.278544	9324.085937
7022.688699	0.861848	0.344556	363.699921
7022.689688	1.321659	0.344556	1670.820679
7022.690650	1.328196	0.344556	2948.544922
7022.691545	1.300902	0.344556	4112.852051
7022.692481	1.271341	0.344556	5302.827637
7022.693446	1.241609	0.344556	6500.980469
7022.694361	1.213433	0.344556	7611.271484
7022.695239	0.974689	0.344556	8467.047852
7022.696178	0.129558	0.344556	8588.703125
7022.697147	0.083804	0.344556	8669.909180
7022.698039	0.083965	0.344556	8744.805664
7022.699083	0.083862	0.344556	8832.357422
7022.700042	0.083892	0.344556	8912.809570
7022.700963	0.083866	0.344556	8990.049805
7022.701823	0.083862	0.344556	9062.171875
7022.702792	0.083932	0.344556	9143.501953
7022.703750	0.083910	0.344556	9223.887695
7022.704638	0.083925	0.344556	9298.413086
7023.854006	0.847723	0.281924	357.739258
7023.855063	1.325171	0.281924	1758.444824
7023.855963	1.328364	0.281924	2953.972656
7023.856843	1.301254	0.281924	4099.076172
7023.857726	1.271913	0.281924	5222.175293
7023.858778	1.240485	0.281924	6527.165039
7023.859671	1.213447	0.281924	7610.773437
7023.860547	0.978772	0.281924	8468.177734
7023.861570	0.133019	0.281924	8604.255859
7023.862464	0.083741	0.281924	8679.121094
7023.863378	0.083829	0.281924	8755.741211
7023.864255	0.083873	0.281924	8829.297852
7023.865299	0.083903	0.281924	8916.892578
7023.866191	0.083881	0.281924	8991.713867
7023.867068	0.083884	0.281924	9065.280273
7023.868044	0.083947	0.281924	9147.211914
7023.869003	0.083888	0.281924	9227.660156
7023.869919	0.083939	0.281924	9304.548828
7024.753701	0.904109	0.343633	482.794128
7024.754764	1.330038	0.343633	1896.624268
7024.755685	1.324365	0.343633	3116.364746
7024.756546	1.296321	0.343633	4232.497070
7024.757610	1.262981	0.343633	5576.308594
7024.758622	1.232007	0.343633	6823.099609
7024.759515	1.205647	0.343633	7899.742187
7024.760511	0.564236	0.343633	8461.720703
7024.761569	0.086825	0.343633	8553.581055
7024.762471	0.083822	0.343633	8629.188477
7024.763332	0.083829	0.343633	8701.365234
7024.764438	0.083914	0.343633	8794.173828
7024.765404	0.083818	0.343633	8875.142578
7024.766265	0.083870	0.343633	8947.354492
7024.767334	0.083884	0.343633	9037.026367
7024.768375	0.083892	0.343633	9124.357422
7024.769266	0.083906	0.343633	9199.118164
7024.770158	0.083932	0.343633	9273.985352
7025.917383	0.856578	0.284530	370.041840
7025.918261	1.315488	0.284530	1525.040527
7025.919176	1.332004	0.284530	2743.824707
7025.920116	1.304121	0.284530	3969.698730
7025.921056	1.273824	0.284530	5167.093750
7025.921938	1.246439	0.284530	6266.453125
7025.922868	1.218256	0.284530	7399.430664
7025.923831	1.028785	0.284530	8390.151367
7025.924747	0.163418	0.284530	8539.841797
7025.925626	0.083785	0.284530	8613.489258
7025.926573	0.083910	0.284530	8692.952148
7025.927537	0.083899	0.284530	8773.831055
7025.928423	0.083811	0.284530	8848.087891
7025.929293	0.083873	0.284530	8921.057617
7025.930246	0.083961	0.284530	9001.072266
7025.931194	0.083837	0.284530	9080.549805
7025.932088	0.083910	0.284530	9155.565430
7025.933015	0.083866	0.284530	9233.309570
7026.818066	0.886743	0.337369	453.125763
7026.818976	1.322358	0.337369	1656.471802
7026.819904	1.328939	0.337369	2889.727539
7026.820777	1.302411	0.337369	4026.732422
7026.821802	1.269573	0.337369	5328.044434
7026.822707	1.240785	0.337369	6450.954590
7026.823628	1.213612	0.337369	7568.691406
7026.824508	0.949343	0.337369	8404.113281
7026.825496	0.127570	0.337369	8530.152344
7026.826451	0.083723	0.337369	8610.108398
7026.827342	0.083859	0.337369	8684.826172
7026.828248	0.083881	0.337369	8760.822266
7026.829191	0.083877	0.337369	8839.917969
7026.830127	0.083884	0.337369	8918.433594
7026.831001	0.083870	0.337369	8991.735352
7026.831927	0.083844	0.337369	9069.375000
7026.832877	0.083939	0.337369	9149.117187
7026.833781	0.083888	0.337369	9224.952148
7027.982310	0.867268	0.279539	401.545135
7027.983194	1.318268	0.279539	1566.893921
7027.984117	1.330052	0.279539	2794.532227
7027.985132	1.300664	0.279539	4114.706055
7027.986056	1.271074	0.279539	5289.178711
7027.986919	1.243722	0.279539	6362.510742
7027.987950	1.213264	0.279539	7613.385742
7027.988866	0.888369	0.279539	8427.131836
7027.989786	0.120286	0.279539	8537.794922
7027.990650	0.083785	0.279539	8610.185547
7027.991694	0.083822	0.279539	8697.695312
7027.992588	0.083855	0.279539	8772.662109
7027.993463	0.083844	0.279539	8846.025391
7027.994456	0.083954	0.279539	8929.391602
7027.995383	0.083793	0.279539	9007.067383
7027.996298	0.083921	0.279539	9083.855469
7027.997162	0.083892	0.279539	9156.337891
7027.998211	0.083793	0.279539	9244.236328
7028.881858	0.852817	0.335814	365.858643
7028.882727	1.313639	0.335814	1507.410889
7028.883807	1.327603	0.335814	2941.221680
7028.884809	1.296936	0.335814	4240.751465
7028.885705	1.268478	0.335814	5377.307617
7028.886681	1.238679	0.335814	6586.258789
7028.887732	1.207196	0.335814	7855.021973
7028.888654	0.694937	0.335814	8495.753906
7028.889517	0.099152	0.335814	8581.321289
7028.890610	0.083829	0.335814	8672.946289
7028.891606	0.083800	0.335814	8756.411133
7028.892487	0.083785	0.335814	8830.225586
7028.893495	0.083895	0.335814	8914.791992
7028.894525	0.083855	0.335814	9001.163086
7028.895411	0.083829	0.335814	9075.435547
7028.896269	0.083826	0.335814	9147.358398
7028.897368	0.083888	0.335814	9239.550781
7028.898328	0.083811	0.335814	9320.009766
7030.046705	0.899066	0.282383	418.065765
7030.047609	1.320158	0.282383	1611.488159
7030.048478	1.330609	0.282383	2767.787598
7030.049462	1.302199	0.282383	4049.150879
7030.050425	1.271642	0.282383	5273.742187
7030.051306	1.243667	0.282383	6369.413086
7030.052230	1.216106	0.282383	7493.094727
7030.053193	0.963098	0.282383	8420.558594
7030.054132	0.133923	0.282383	8546.312500
7030.055016	0.083687	0.282383	8620.291016
7030.055927	0.083829	0.282383	8696.659180
7030.056884	0.083760	0.282383	8776.817383
7030.057807	0.083899	0.282383	8854.255859
7030.058671	0.083804	0.282383	8926.662109
7030.059644	0.083796	0.282383	9008.196289
7030.060600	0.083800	0.282383	9088.309570
7030.061482	0.083910	0.282383	9162.318359
7030.062364	0.083855	0.282383	9236.278320
7030.945225	0.876632	0.348173	379.581665
7030.946147	1.319293	0.348173	1595.970093
7030.947030	1.331034	0.348173	2771.272949
7030.947984	1.303004	0.348173	4014.338867
7030.948938	1.272546	0.348173	5228.348145
7030.949829	1.244703	0.348173	6337.378906
7030.950801	1.216381	0.348173	7519.700684
7030.951736	0.970887	0.348173	8427.480469
7030.952670	0.140233	0.348173	8558.458008
7030.953546	0.083577	0.348173	8631.670898
7030.954503	0.083844	0.348173	8711.909180
7030.955452	0.083855	0.348173	8791.487305
7030.956321	0.083921	0.348173	8864.415039
7030.957193	0.083914	0.348173	8937.587891
7030.958217	0.083866	0.348173	9023.466797
7030.959141	0.083848	0.348173	9100.942383
7030.960024	0.083928	0.348173	9175.050781
7030.960930	0.083870	0.348173	9251.037109
7032.110113	0.918193	0.276860	486.642517
7032.111142	1.331246	0.276860	1856.495117
7032.112036	1.325911	0.276860	3041.859375
7032.112904	1.298101	0.276860	4168.610840
7032.114007	1.264266	0.276860	5563.096680
7032.114937	1.235372	0.276860	6711.993164
7032.115822	1.208983	0.276860	7781.943359
7032.116793	0.713265	0.276860	8474.524414
7032.117794	0.092102	0.276860	8566.718750
7032.118675	0.083763	0.276860	8640.514648
7032.119534	0.083862	0.276860	8712.552734
7032.120608	0.083866	0.276860	8802.625000
7032.121531	0.083822	0.276860	8879.993164
7032.122398	0.083851	0.276860	8952.692383
7032.123349	0.083917	0.276860	9032.498047
7032.124384	0.083785	0.276860	9119.215820
7032.125279	0.083837	0.276860	9194.250000
7032.126142	0.083826	0.276860	9266.591797
7033.009617	0.866045	0.338171	383.657898
7033.010529	1.318608	0.338171	1586.228760
7033.011413	1.330723	0.338171	2762.587646
7033.012365	1.302971	0.338171	4003.016113
7033.013334	1.272294	0.338171	5235.868652
7033.014230	1.244330	0.338171	6350.788086
7033.015149	1.217179	0.338171	7469.375488
7033.016072	1.004912	0.338171	8396.909180
7033.017032	0.147338	0.338171	8538.353516
7033.017921	0.083734	0.338171	8612.792969
7033.018841	0.083844	0.338171	8689.929687
7033.019792	0.083877	0.338171	8769.696289
7033.020722	0.083752	0.338171	8847.585937
7033.021583	0.083848	0.338171	8919.778320
7033.022504	0.083829	0.338171	8996.985352
7033.023473	0.083899	0.338171	9078.283203
7033.024396	0.083888	0.338171	9155.711914
7033.025257	0.083866	0.338171	9227.920898
7034.174388	0.846943	0.274258	356.563171
7034.175353	1.318711	0.274258	1629.119141
7034.176289	1.329697	0.274258	2873.715820
7034.177175	1.302858	0.274258	4028.047852
7034.178064	1.274319	0.274258	5160.916992
7034.179019	1.244183	0.274258	6349.112305
7034.179981	1.215861	0.274258	7518.770508
7034.180868	1.034388	0.274258	8436.273437
7034.181800	0.169299	0.274258	8594.060547
7034.182755	0.083730	0.274258	8674.023437
7034.183627	0.083833	0.274258	8747.125977
7034.184525	0.083873	0.274258	8822.444336
7034.185464	0.083903	0.274258	8901.228516
7034.186421	0.083760	0.274258	8981.386719
7034.187317	0.083840	0.274258	9056.507812
7034.188224	0.083873	0.274258	9132.581055
7034.189185	0.083873	0.274258	9213.183594
7034.190106	0.083958	0.274258	9290.508789
7035.074500	0.854154	0.336487	368.140381
7035.075401	1.316114	0.336487	1553.959473
7035.076283	1.331785	0.336487	2728.593506
7035.077241	1.304623	0.336487	3978.422119
7035.078169	1.273627	0.336487	5160.347656
7035.079092	1.245546	0.336487	6309.986328
7035.079962	1.218131	0.336487	7369.760742
7035.081019	0.976311	0.336487	8401.721680
7035.081912	0.148689	0.336487	8534.500977
7035.082777	0.083782	0.336487	8606.972656
7035.083786	0.083840	0.336487	8691.567383
7035.084679	0.083873	0.336487	8766.465820
7035.085602	0.083906	0.336487	8843.911133
7035.086479	0.083859	0.336487	8917.455078
7035.087493	0.083848	0.336487	9002.476562
7035.088393	0.083815	0.336487	9077.910156
7035.089308	0.083833	0.336487	9154.617187
7035.090168	0.083877	0.336487	9226.750977
7036.239955	0.966749	0.275970	552.013855
7036.240929	1.330693	0.275970	1848.109131
7036.241805	1.326910	0.275970	3010.482666
7036.242667	1.298536	0.275970	4129.821289
7036.243807	1.264786	0.275970	5571.677734
7036.244689	1.236947	0.275970	6662.665039
7036.245559	1.210737	0.275970	7716.006836
7036.246608	0.682441	0.275970	8431.887695
7036.247582	0.091520	0.275970	8521.028320
7036.248461	0.083730	0.275970	8594.626953
7036.249318	0.083895	0.275970	8666.525391
7036.250440	0.083818	0.275970	8760.569336
7036.251342	0.083701	0.275970	8836.067383
7036.252207	0.083870	0.275970	8908.614258
7036.253312	0.083873	0.275970	9001.293945
7036.254290	0.083804	0.275970	9083.253906
7036.255170	0.083866	0.275970	9157.055664
7036.256048	0.083789	0.275970	9230.622070
7037.137350	0.857197	0.335387	370.309235
7037.138297	1.320022	0.335387	1620.369995
7037.139249	1.328778	0.335387	2885.366699
7037.140181	1.300902	0.335387	4097.807617
7037.141050	1.272378	0.335387	5203.503906
7037.142020	1.243022	0.335387	6409.235840
7037.142965	1.214381	0.335387	7556.826172
7037.143861	0.988696	0.335387	8442.698242
7037.144782	0.151945	0.335387	8582.639648
7037.145742	0.083716	0.335387	8663.006836
7037.146667	0.083862	0.335387	8740.579102
7037.147542	0.083950	0.335387	8814.035156
7037.148470	0.083877	0.335387	8891.873047
7037.149427	0.083870	0.335387	8972.136719
7037.150353	0.083862	0.335387	9049.792969
7037.151215	0.083881	0.335387	9122.097656
7037.152188	0.083972	0.335387	9203.802734
7037.153130	0.083848	0.335387	9282.787109
7038.304744	0.881821	0.267123	414.455994
7038.305678	1.322454	0.267123	1649.627686
7038.306553	1.330627	0.267123	2813.926758
7038.307465	1.303993	0.267123	4003.168213
7038.308424	1.273433	0.267123	5224.390137
7038.309348	1.244425	0.267123	6374.238770
7038.310218	1.217714	0.267123	7433.649414
7038.311140	1.017074	0.267123	8371.391602
7038.312105	0.158049	0.267123	8523.909180
7038.312993	0.083811	0.267123	8598.333008
7038.314089	0.083943	0.267123	8690.333984
7038.315053	0.083899	0.267123	8771.212891
7038.315977	0.083884	0.267123	8848.721680
7038.316850	0.083881	0.267123	8921.949219
7038.317825	0.083873	0.267123	9003.725586
7038.318778	0.083936	0.267123	9083.715820
7038.319662	0.083976	0.267123	9157.950195
7038.320529	0.083932	0.267123	9230.718750
7039.197161	0.908683	0.335552	428.898285
7039.198055	1.319773	0.335552	1608.775391
7039.198924	1.330118	0.335552	2764.648437
7039.200027	1.298536	0.335552	4196.934082
7039.200953	1.268694	0.335552	5371.744629
7039.201833	1.241748	0.335552	6464.482910
7039.202813	1.212565	0.335552	7652.796387
7039.203828	0.794561	0.335552	8459.275391
7039.204717	0.106212	0.335552	8553.698242
7039.205578	0.083752	0.335552	8625.809570
7039.206656	0.083903	0.335552	8716.256836
7039.207567	0.083840	0.335552	8792.635742
7039.208437	0.083899	0.335552	8865.627930
7039.209430	0.083859	0.335552	8948.899414
7039.210433	0.083855	0.335552	9033.005859
7039.211309	0.083855	0.335552	9106.462891
7039.212175	0.083848	0.335552	9179.075195
7039.213237	0.083884	0.335552	9268.160156
7040.370172	0.904530	0.271945	439.601562
7040.371050	1.320267	0.271945	1598.796265
7040.371977	1.329781	0.271945	2831.503662
7040.373048	1.297500	0.271945	4221.125977
7040.374004	1.267416	0.271945	5432.775391
7040.374873	1.240323	0.271945	6510.616211
7040.375944	1.208426	0.271945	7804.840820
7040.376960	0.632014	0.271945	8446.966797
7040.377850	0.093329	0.271945	8530.029297
7040.378818	0.083888	0.271945	8611.232422
7040.379867	0.083873	0.271945	8699.215820
7040.380775	0.083873	0.271945	8775.373047
7040.381638	0.083862	0.271945	8847.746094
7040.382714	0.083932	0.271945	8938.056641
7040.383713	0.083793	0.271945	9021.765625
7040.384605	0.083921	0.271945	9096.623047
7040.385462	0.083943	0.271945	9168.562500
7040.386533	0.083840	0.271945	9258.355469
7041.261042	0.885934	0.342594	424.362335
7041.262001	1.323109	0.342594	1693.223999
7041.262926	1.328240	0.342594	2921.845703
7041.263795	1.301832	0.342594	4053.137939
7041.264773	1.271312	0.342594	5296.481445
7041.265711	1.241341	0.342594	6460.859863
7041.266631	1.214066	0.342594	7577.800781
7041.267495	0.966189	0.342594	8412.587891
7041.268448	0.138827	0.342594	8544.889648
7041.269399	0.083734	0.342594	8624.520508
7041.270288	0.083840	0.342594	8699.054687
7041.271201	0.083837	0.342594	8775.597656
7041.272155	0.083892	0.342594	8855.629883
7041.273072	0.083796	0.342594	8932.470703
7041.273950	0.083844	0.342594	9006.085937
7041.274904	0.083818	0.342594	9086.048828
7041.275848	0.083815	0.342594	9165.169922
7041.276720	0.083873	0.342594	9238.307617
