time (s)	coil I (A)	last det (V)	int current (uC)
9881.035348	0.975535	0.301823	546.299438
9881.036365	1.330734	0.301823	1899.655518
9881.037270	1.322377	0.301823	3096.406494
9881.038137	1.293743	0.301823	4218.081543
9881.039247	1.260494	0.301823	5617.230469
9881.040149	1.232139	0.301823	6728.619629
9881.041026	1.206006	0.301823	7786.286621
9881.042044	1.177683	0.301823	8985.167969
9881.043040	1.150045	0.301823	10130.613281
9881.043931	1.128208	0.301823	11135.846680
9881.044794	1.109960	0.301823	12093.742187
9881.045896	0.765769	0.301823	12937.620117
9881.046775	0.108219	0.301823	13032.744141
9881.047650	0.083804	0.301823	13106.072266
9881.048646	0.083917	0.301823	13189.654297
9881.049638	0.083866	0.301823	13272.849609
9881.050526	0.083862	0.301823	13347.319336
9881.051388	0.083987	0.301823	13419.715820
9881.052482	0.083954	0.301823	13511.561523
9881.053395	0.083921	0.301823	13588.181641
9881.054273	0.083917	0.301823	13661.861328
9881.055242	0.083954	0.301823	13743.212891
9882.309074	0.869297	0.089982	382.490601
9882.309936	1.313353	0.089982	1514.601074
9882.310895	1.328342	0.089982	2788.481445
9882.311823	1.299716	0.089982	3994.617676
9882.312747	1.271001	0.089982	5169.022461
9882.313619	1.243363	0.089982	6253.234863
9882.314604	1.214341	0.089982	7449.360352
9882.315530	1.187706	0.089982	8549.176758
9882.316398	1.163152	0.089982	9558.792969
9882.317374	1.137898	0.089982	10669.380859
9882.318329	1.118602	0.089982	11737.646484
9882.319224	1.095681	0.089982	12718.281250
9882.320109	0.354943	0.089982	13032.405273
9882.321056	0.085386	0.089982	13113.265625
9882.322015	0.083782	0.089982	13193.612305
9882.322890	0.083851	0.089982	13266.982422
9882.323805	0.083943	0.089982	13343.790039
9882.324759	0.083899	0.089982	13423.830078
9882.325682	0.083862	0.089982	13501.235352
9882.326562	0.083925	0.089982	13575.088867
9882.327533	0.083851	0.089982	13656.508789
9882.328468	0.083895	0.089982	13734.951172
9883.101619	0.857776	0.284506	358.550323
9883.102688	1.325812	0.284506	1775.843018
9883.103589	1.324801	0.284506	2969.488770
9883.104471	1.297749	0.284506	4114.103516
9883.105481	1.266464	0.284506	5393.231934
9883.106428	1.236394	0.284506	6564.097168
9883.107360	1.208840	0.284506	7690.736328
9883.108225	1.183623	0.284506	8714.570312
9883.109257	1.155846	0.284506	9907.403320
9883.110134	1.132339	0.284506	10900.464844
9883.111014	1.115724	0.284506	11882.301758
9883.111963	0.991315	0.284506	12823.059570
9883.112940	0.178458	0.284506	12997.413086
9883.113854	0.083899	0.284506	13074.096680
9883.114729	0.083884	0.284506	13147.495117
9883.115799	0.083870	0.284506	13237.235352
9883.116691	0.083859	0.284506	13312.037109
9883.117564	0.083954	0.284506	13385.329102
9883.118459	0.083943	0.284506	13460.458008
9883.119484	0.083884	0.284506	13546.439453
9883.120374	0.083796	0.284506	13621.018555
9883.121240	0.083954	0.284506	13693.722656
9884.373436	0.849016	0.094381	358.284790
9884.374411	1.314609	0.094381	1640.028931
9884.375456	1.323830	0.094381	3023.431641
9884.376370	1.295464	0.094381	4207.485352
9884.377235	1.266929	0.094381	5303.378906
9884.378304	1.234567	0.094381	6623.130859
9884.379302	1.204695	0.094381	7825.416504
9884.380196	1.179613	0.094381	8879.990234
9884.381186	1.152565	0.094381	10021.029297
9884.382254	1.127318	0.094381	11225.004883
9884.383160	1.107649	0.094381	12228.535156
9884.384037	0.780366	0.094381	12912.916016
9884.385131	0.097196	0.094381	13019.248047
9884.386092	0.083679	0.094381	13099.664062
9884.386957	0.083811	0.094381	13172.160156
9884.388010	0.083917	0.094381	13260.525391
9884.389043	0.083811	0.094381	13347.102539
9884.389940	0.083870	0.094381	13422.333984
9884.390829	0.083851	0.094381	13496.877930
9884.391914	0.083921	0.094381	13587.931641
9884.392863	0.083892	0.094381	13667.544922
9884.393724	0.083939	0.094381	13739.816406
9885.168060	0.849130	0.273496	359.181824
9885.169015	1.314100	0.273496	1614.147705
9885.169957	1.326636	0.273496	2863.838379
9885.170880	1.298760	0.273496	4062.593750
9885.171751	1.270767	0.273496	5169.431641
9885.172725	1.240770	0.273496	6377.941895
9885.173661	1.212341	0.273496	7512.693359
9885.174588	1.186007	0.273496	8612.122070
9885.175453	1.161603	0.273496	9616.908203
9885.176398	1.136320	0.273496	10690.730469
9885.177356	1.117566	0.273496	11761.358398
9885.178252	1.092085	0.273496	12739.866211
9885.179173	0.316128	0.273496	13031.019531
9885.180137	0.084602	0.273496	13112.576172
9885.181026	0.083859	0.273496	13187.126953
9885.181896	0.083855	0.273496	13260.081055
9885.182927	0.083833	0.273496	13346.512695
9885.183855	0.083859	0.273496	13424.333984
9885.184729	0.083965	0.273496	13497.719727
9885.185690	0.083914	0.273496	13578.360352
9885.186606	0.083910	0.273496	13655.221680
9885.187535	0.083877	0.273496	13733.143555
9886.438926	0.923741	0.083384	456.328247
9886.439807	1.319506	0.083384	1618.812622
9886.440670	1.328302	0.083384	2765.137207
9886.441747	1.296790	0.083384	4161.779297
9886.442686	1.266698	0.083384	5351.208984
9886.443555	1.239730	0.083384	6428.534668
9886.444500	1.211356	0.083384	7573.266113
9886.445560	1.181232	0.083384	8825.372070
9886.446455	1.156520	0.083384	9860.457031
9886.447321	1.133558	0.083384	10842.118164
9886.448360	1.112919	0.083384	11998.440430
9886.449316	0.945524	0.083384	12902.361328
9886.450196	0.158529	0.083384	13041.867187
9886.451115	0.083979	0.083384	13119.043945
9886.452176	0.083873	0.083384	13208.033203
9886.453075	0.083892	0.083384	13283.452148
9886.453950	0.083958	0.083384	13356.915039
9886.454873	0.083936	0.083384	13434.387695
9886.455891	0.083844	0.083384	13519.741211
9886.456769	0.083925	0.083384	13593.426758
9886.457635	0.083921	0.083384	13666.102539
9886.458766	0.083958	0.083384	13761.058594
9887.233508	0.902706	0.279515	418.855713
9887.234440	1.320348	0.279515	1649.419922
9887.235320	1.327566	0.279515	2817.677979
9887.236248	1.299774	0.279515	4023.868408
9887.237215	1.269360	0.279515	5251.339844
9887.238111	1.241433	0.279515	6363.664062
9887.239041	1.214051	0.279515	7492.731934
9887.239999	1.186289	0.279515	8629.197266
9887.240911	1.160226	0.279515	9687.323242
9887.241803	1.136792	0.279515	10701.341797
9887.242719	1.118046	0.279515	11725.471680
9887.243694	1.070500	0.279515	12769.209961
9887.244619	0.265726	0.279515	13015.006836
9887.245479	0.084943	0.279515	13088.057617
9887.246455	0.083892	0.279515	13169.935547
9887.247413	0.083936	0.279515	13250.345703
9887.248303	0.084038	0.279515	13325.139648
9887.249215	0.083965	0.279515	13401.715820
9887.250157	0.083990	0.279515	13480.834961
9887.251098	0.083947	0.279515	13559.829102
9887.251966	0.083936	0.279515	13632.685547
9887.252875	0.083873	0.279515	13708.926758
9888.504337	0.902970	0.077498	463.223602
9888.505381	1.328093	0.077498	1849.753052
9888.506262	1.323981	0.077498	3016.180176
9888.507127	1.296522	0.077498	4137.671875
9888.508195	1.263296	0.077498	5486.872070
9888.509134	1.234424	0.077498	6645.996094
9888.510006	1.208243	0.077498	7699.584473
9888.510942	1.181389	0.077498	8805.365234
9888.512000	1.152686	0.077498	10024.906250
9888.512895	1.130002	0.077498	11036.258789
9888.513765	1.112926	0.077498	12004.503906
9888.514808	0.837209	0.077498	12877.712891
9888.515774	0.114012	0.077498	12987.848633
9888.516645	0.083785	0.077498	13060.826172
9888.517576	0.083939	0.077498	13138.973633
9888.518635	0.083848	0.077498	13227.768555
9888.519519	0.083906	0.077498	13301.941406
9888.520378	0.083892	0.077498	13374.003906
9888.521414	0.083950	0.077498	13460.976562
9888.522375	0.083862	0.077498	13541.568359
9888.523247	0.083899	0.077498	13614.728516
9888.524130	0.083954	0.077498	13688.859375
9889.296836	0.856923	0.290145	372.761322
9889.297713	1.313207	0.290145	1524.443726
9889.298633	1.328599	0.290145	2746.754395
9889.299604	1.300367	0.290145	4009.411133
9889.300537	1.270463	0.290145	5194.752930
9889.301405	1.243180	0.290145	6273.833008
9889.302379	1.213641	0.290145	7455.919922
9889.303319	1.186003	0.290145	8570.762695
9889.304259	1.160457	0.290145	9661.591797
9889.305141	1.136642	0.290145	10664.110352
9889.306104	1.117918	0.290145	11740.665039
9889.307057	1.074419	0.290145	12764.585937
9889.307952	0.280474	0.290145	13015.609375
9889.308862	0.085148	0.290145	13093.093750
9889.309787	0.083848	0.290145	13170.652344
9889.310733	0.083914	0.290145	13250.034180
9889.311616	0.083862	0.290145	13324.084961
9889.312544	0.083844	0.290145	13401.892578
9889.313504	0.083873	0.290145	13482.411133
9889.314374	0.083943	0.290145	13555.441406
9889.315290	0.083947	0.290145	13632.336914
9889.316219	0.083851	0.290145	13710.234375
9890.568687	0.903248	0.081555	416.397461
9890.569573	1.316876	0.081555	1583.149780
9890.570442	1.329027	0.081555	2738.074219
9890.571456	1.299880	0.081555	4056.152832
9890.572362	1.269712	0.081555	5206.511719
9890.573272	1.241653	0.081555	6336.416016
9890.574153	1.214923	0.081555	7406.763184
9890.575186	1.185557	0.081555	8631.443359
9890.576086	1.160636	0.081555	9676.015625
9890.576962	1.137283	0.081555	10672.275391
9890.577928	1.118005	0.081555	11752.268555
9890.578913	1.061371	0.081555	12797.718750
9890.579846	0.236580	0.081555	13018.447266
9890.580714	0.084521	0.081555	13091.811523
9890.581753	0.083800	0.081555	13178.879883
9890.582629	0.083892	0.081555	13252.369141
9890.583499	0.083833	0.081555	13325.303711
9890.584402	0.083884	0.081555	13401.050781
9890.585413	0.083833	0.081555	13485.805664
9890.586326	0.083943	0.081555	13562.445312
9890.587205	0.083895	0.081555	13636.189453
9890.588201	0.083903	0.081555	13719.756836
9891.360256	0.925818	0.293650	447.169983
9891.361142	1.318374	0.293650	1615.249268
9891.362013	1.328207	0.293650	2772.117432
9891.362939	1.300686	0.293650	3976.552734
9891.363875	1.270298	0.293650	5165.551758
9891.364801	1.241986	0.293650	6315.630859
9891.365683	1.215114	0.293650	7387.360840
9891.366652	1.187721	0.293650	8538.262695
9891.367619	1.161171	0.293650	9661.114258
9891.368514	1.136821	0.293650	10678.569336
9891.369412	1.119016	0.293650	11683.445312
9891.370367	1.088778	0.293650	12723.228516
9891.371328	0.289556	0.293650	13001.491211
9891.372214	0.084943	0.293650	13076.750000
9891.373147	0.083892	0.293650	13155.020508
9891.374116	0.083943	0.293650	13236.361328
9891.374984	0.083899	0.293650	13309.185547
9891.375899	0.083903	0.293650	13385.956055
9891.376824	0.083954	0.293650	13463.613281
9891.377772	0.083884	0.293650	13543.135742
9891.378660	0.083910	0.293650	13617.647461
9891.379568	0.083837	0.293650	13693.771484
9892.632069	0.922258	0.083299	461.129150
9892.633006	1.322362	0.083299	1700.182373
9892.633934	1.325771	0.083299	2930.498291
9892.634807	1.298804	0.083299	4064.354004
9892.635729	1.269390	0.083299	5234.731445
9892.636685	1.239979	0.083299	6420.151367
9892.637583	1.213140	0.083299	7509.550781
9892.638499	1.186926	0.083299	8596.775391
9892.639469	1.160391	0.083299	9722.354492
9892.640393	1.135232	0.083299	10771.308594
9892.641285	1.118020	0.083299	11768.582031
9892.642218	1.072811	0.083299	12769.514648
9892.643181	0.254279	0.083299	13014.384766
9892.644105	0.084463	0.083299	13092.428711
9892.644966	0.083936	0.083299	13164.697266
9892.645928	0.083947	0.083299	13245.454102
9892.646885	0.083870	0.083299	13325.717773
9892.647777	0.083939	0.083299	13400.591797
9892.648683	0.083921	0.083299	13476.624023
9892.649601	0.083987	0.083299	13553.723633
9892.650555	0.083903	0.083299	13633.766602
9892.651446	0.083950	0.083299	13708.566406
9893.424675	0.932911	0.292812	480.449371
9893.425570	1.321868	0.292812	1663.520996
9893.426438	1.327039	0.292812	2815.390381
9893.427460	1.296815	0.292812	4140.735352
9893.428471	1.263977	0.292812	5418.616211
9893.429363	1.236716	0.292812	6521.767090
9893.430226	1.209613	0.292812	7565.663086
9893.431345	1.179426	0.292812	8885.441406
9893.432225	1.154685	0.292812	9901.564453
9893.433105	1.131866	0.292812	10897.607422
9893.434115	1.111842	0.292812	12020.568359
9893.435123	0.866407	0.292812	12893.907227
9893.436021	0.128514	0.292812	13009.313477
9893.436882	0.083873	0.292812	13081.528320
9893.438000	0.083917	0.292812	13175.347656
9893.438905	0.083961	0.292812	13251.333008
9893.439785	0.083899	0.292812	13325.164062
9893.440792	0.084001	0.292812	13409.753906
9893.441783	0.083906	0.292812	13492.905273
9893.442679	0.083976	0.292812	13568.147461
9893.443544	0.083921	0.292812	13640.739258
9893.444620	0.083895	0.292812	13731.010742
9894.701549	0.899026	0.077736	418.946045
9894.702429	1.316715	0.077736	1577.655273
9894.703412	1.325826	0.077736	2880.942627
9894.704483	1.294014	0.077736	4266.831055
9894.705380	1.264786	0.077736	5401.344727
9894.706257	1.236855	0.077736	6486.066895
9894.707356	1.205131	0.077736	7810.505371
9894.708340	1.177057	0.077736	8968.729492
9894.709223	1.153220	0.077736	9987.022461
9894.710229	1.128702	0.077736	11122.497070
9894.711287	1.106364	0.077736	12293.029297
9894.712183	0.756852	0.077736	12971.168945
9894.713068	0.108083	0.077736	13066.823242
9894.714177	0.083903	0.077736	13159.871094
9894.715127	0.083932	0.077736	13239.606445
9894.715994	0.083899	0.077736	13312.346680
9894.717040	0.084082	0.077736	13400.296875
9894.718071	0.083961	0.077736	13486.861328
9894.718963	0.083954	0.077736	13561.748047
9894.719904	0.084067	0.077736	13640.855469
9894.720945	0.083961	0.077736	13728.258789
9894.721876	0.083917	0.077736	13806.385742
9895.491053	0.876412	0.294141	414.543030
9895.492003	1.322044	0.294141	1670.484375
9895.492928	1.325654	0.294141	2896.714844
9895.493794	1.298141	0.294141	4020.904785
9895.494848	1.265698	0.294141	5354.950684
9895.495743	1.237925	0.294141	6462.893555
9895.496666	1.210679	0.294141	7580.350098
9895.497530	1.184875	0.294141	8604.082031
9895.498522	1.158193	0.294141	9753.009766
9895.499454	1.133778	0.294141	10809.691406
9895.500340	1.116650	0.294141	11799.043945
9895.501358	1.017513	0.294141	12834.873047
9895.502263	0.197996	0.294141	13014.058594
9895.503178	0.083979	0.294141	13090.899414
9895.504043	0.083928	0.294141	13163.497070
9895.505043	0.083910	0.294141	13247.407227
9895.505962	0.083917	0.294141	13324.527344
9895.506830	0.083925	0.294141	13397.374023
9895.507881	0.083859	0.294141	13485.509766
9895.508766	0.083943	0.294141	13559.798828
9895.509667	0.083903	0.294141	13635.395508
9895.510549	0.083950	0.294141	13709.439453
9896.767993	0.909675	0.081958	432.095734
9896.768874	1.317642	0.081958	1592.937988
9896.769734	1.328320	0.081958	2735.293457
9896.770812	1.297017	0.081958	4133.477539
9896.771734	1.267310	0.081958	5301.937012
9896.772612	1.240316	0.081958	6390.934570
9896.773597	1.211323	0.081958	7584.087891
9896.774622	1.181495	0.081958	8795.121094
9896.775518	1.156930	0.081958	9831.730469
9896.776392	1.133522	0.081958	10822.428711
9896.777476	1.112146	0.081958	12027.995117
9896.778423	0.927268	0.081958	12906.118164
9896.779304	0.150959	0.081958	13039.113281
9896.780268	0.083928	0.081958	13120.020508
9896.781279	0.083936	0.081958	13204.878906
9896.782166	0.083961	0.081958	13279.352539
9896.783027	0.084049	0.081958	13351.718750
9896.784093	0.084023	0.081958	13441.288086
9896.785027	0.083895	0.081958	13519.646484
9896.785904	0.083921	0.081958	13593.245117
9896.786839	0.083932	0.081958	13671.721680
9896.787895	0.083895	0.081958	13760.315430
9897.555447	0.883451	0.302323	418.755737
9897.556380	1.319594	0.302323	1649.936523
9897.557257	1.326962	0.302323	2813.681885
9897.558127	1.300334	0.302323	3944.972900
9897.559072	1.270071	0.302323	5145.189941
9897.560030	1.240807	0.302323	6333.882812
9897.560927	1.214081	0.302323	7422.913086
9897.561838	1.187761	0.302323	8504.963867
9897.562804	1.161456	0.302323	9626.930664
9897.563728	1.136536	0.302323	10677.089844
9897.564613	1.119126	0.302323	11667.516602
9897.565561	1.092674	0.302323	12703.372070
9897.566497	0.303959	0.302323	12987.876953
9897.567426	0.084895	0.302323	13066.744141
9897.568286	0.083804	0.302323	13138.815430
9897.569268	0.083943	0.302323	13221.247070
9897.570177	0.083884	0.302323	13297.498047
9897.571056	0.083855	0.302323	13371.207031
9897.572010	0.083936	0.302323	13451.281250
9897.572962	0.083928	0.302323	13531.180664
9897.573848	0.083914	0.302323	13605.528320
9897.574735	0.083866	0.302323	13679.916992
9898.834458	0.948285	0.080769	495.004700
9898.835383	1.323105	0.080769	1718.877197
9898.836320	1.325218	0.080769	2960.606934
9898.837186	1.297983	0.080769	4084.660645
9898.838198	1.267082	0.080769	5366.948242
9898.839114	1.238053	0.080769	6501.004883
9898.840003	1.211356	0.080769	7577.900391
9898.840926	1.185513	0.080769	8672.128906
9898.841856	1.158743	0.080769	9749.759766
9898.842812	1.134016	0.080769	10833.878906
9898.843703	1.117101	0.080769	11829.215820
9898.844618	1.057002	0.080769	12796.373047
9898.845594	0.225081	0.080769	13016.051758
9898.846511	0.084122	0.080769	13093.192383
9898.847372	0.083998	0.080769	13165.514648
9898.848337	0.083961	0.080769	13246.537109
9898.849265	0.083939	0.080769	13324.432617
9898.850128	0.083928	0.080769	13396.862305
9898.851123	0.084001	0.080769	13480.443359
9898.852066	0.083943	0.080769	13559.601562
9898.852988	0.083998	0.080769	13637.047852
9898.853865	0.084042	0.080769	13710.752930
9899.620866	0.902776	0.305223	445.068481
9899.621743	1.318052	0.305223	1600.999878
9899.622660	1.326456	0.305223	2817.360352
9899.623726	1.294768	0.305223	4197.583008
9899.624677	1.264611	0.305223	5400.227539
9899.625539	1.237866	0.305223	6467.268555
9899.626576	1.207126	0.305223	7719.058594
9899.627614	1.177841	0.305223	8941.657227
9899.628490	1.153315	0.305223	9951.961914
9899.629456	1.129889	0.305223	11043.434570
9899.630516	1.107257	0.305223	12217.126953
9899.631452	0.781058	0.305223	12948.197266
9899.632319	0.112306	0.305223	13045.566406
9899.633396	0.083921	0.305223	13135.949219
9899.634404	0.083862	0.305223	13220.482422
9899.635297	0.084027	0.305223	13295.518555
9899.636267	0.084023	0.305223	13377.021484
9899.637319	0.083972	0.305223	13465.360352
9899.638234	0.083925	0.305223	13542.151367
9899.639095	0.084016	0.305223	13614.489258
9899.640177	0.083903	0.305223	13705.271484
9899.641159	0.083881	0.305223	13787.642578
9900.901880	0.893401	0.086385	435.979614
9900.902816	1.320773	0.086385	1672.222900
9900.903746	1.325925	0.086385	2905.333496
9900.904609	1.299163	0.086385	4026.510742
9900.905545	1.269371	0.086385	5214.642090
9900.906488	1.239957	0.086385	6383.921875
9900.907416	1.212616	0.086385	7509.229492
9900.908282	1.186992	0.086385	8537.165039
9900.909262	1.160281	0.086385	9674.240234
9900.910236	1.134818	0.086385	10779.552734
9900.911129	1.117445	0.086385	11777.430664
9900.912046	1.071006	0.086385	12759.542969
9900.913013	0.256483	0.086385	13007.562500
9900.913935	0.084459	0.086385	13085.433594
9900.914800	0.083892	0.086385	13158.000000
9900.915735	0.083950	0.086385	13236.493164
9900.916667	0.083954	0.086385	13314.738281
9900.917558	0.083928	0.086385	13389.518555
9900.918590	0.083873	0.086385	13476.076172
9900.919549	0.083873	0.086385	13556.510742
9900.920478	0.084005	0.086385	13634.551758
9900.921338	0.083928	0.086385	13706.730469
9901.684210	0.908342	0.317437	424.195862
9901.685098	1.317140	0.317437	1593.816162
9901.685971	1.328177	0.317437	2753.314941
9901.686974	1.298837	0.317437	4056.048340
9901.687900	1.268760	0.317437	5230.919922
9901.688805	1.240723	0.317437	6353.773926
9901.689684	1.213667	0.317437	7420.586914
9901.690722	1.184480	0.317437	8650.077148
9901.691625	1.159658	0.317437	9697.248047
9901.692505	1.136056	0.317437	10696.977539
9901.693461	1.117130	0.317437	11764.954102
9901.694444	1.061532	0.317437	12808.439453
9901.695367	0.232203	0.317437	13022.762695
9901.696234	0.084430	0.317437	13095.963867
9901.697282	0.084012	0.317437	13184.008789
9901.698171	0.083892	0.317437	13258.588867
9901.699043	0.083983	0.317437	13331.822266
9901.699942	0.083928	0.317437	13407.273437
9901.700978	0.083851	0.317437	13494.143555
9901.701855	0.083906	0.317437	13567.729492
9901.702736	0.083936	0.317437	13641.676758
9901.703724	0.083976	0.317437	13724.644531
9902.967286	0.905636	0.094188	437.422180
9902.968165	1.317697	0.094188	1595.677490
9902.969141	1.326083	0.094188	2889.934082
9902.970190	1.294168	0.094188	4247.515625
9902.971112	1.264827	0.094188	5413.685547
9902.971977	1.237434	0.094188	6484.065918
9902.973036	1.206559	0.094188	7761.811523
9902.974060	1.177705	0.094188	8967.781250
9902.974933	1.153370	0.094188	9974.673828
9902.975912	1.129424	0.094188	11080.379883
9902.976980	1.106887	0.094188	12262.535156
9902.977902	0.762440	0.094188	12965.504883
9902.978769	0.109138	0.094188	13060.127930
9902.979866	0.083837	0.094188	13152.096680
9902.980847	0.083954	0.094188	13234.455078
9902.981729	0.083910	0.094188	13308.463867
9902.982727	0.083892	0.094188	13392.187500
9902.983774	0.084009	0.094188	13480.144531
9902.984665	0.083943	0.094188	13554.937500
9902.985529	0.083903	0.094188	13627.429687
9902.986666	0.084020	0.094188	13722.959961
9902.987623	0.084027	0.094188	13803.374023
9903.748578	0.877859	0.318194	395.914368
9903.749450	1.314620	0.318194	1542.263428
9903.750343	1.328207	0.318194	2728.352051
9903.751286	1.300261	0.318194	3954.498535
9903.752239	1.270298	0.318194	5165.092285
9903.753116	1.242905	0.318194	6255.120117
9903.754035	1.215212	0.318194	7371.900391
9903.754987	1.187823	0.318194	8502.708008
9903.755920	1.161885	0.318194	9586.746094
9903.756799	1.138140	0.318194	10587.170898
9903.757775	1.118745	0.318194	11679.066406
9903.758733	1.091873	0.318194	12725.080078
9903.759633	0.315348	0.318194	13008.893555
9903.760517	0.085624	0.318194	13084.584961
9903.761460	0.083848	0.318194	13163.653320
9903.762420	0.083965	0.318194	13244.259766
9903.763295	0.084016	0.318194	13317.773437
9903.764199	0.083917	0.318194	13393.634766
9903.765139	0.083903	0.318194	13472.502930
9903.766058	0.083914	0.318194	13549.619141
9903.766934	0.083972	0.318194	13623.178711
9903.767896	0.083936	0.318194	13703.924805
9905.035727	0.868927	0.087368	377.983246
9905.036731	1.318491	0.087368	1701.748291
9905.037643	1.325314	0.087368	2910.434326
9905.038573	1.297251	0.087368	4116.877930
9905.039439	1.268712	0.087368	5215.582520
9905.040486	1.237570	0.087368	6511.317871
9905.041365	1.210814	0.087368	7575.623535
9905.042246	1.185630	0.087368	8620.164062
9905.043215	1.159288	0.087368	9743.514648
9905.044164	1.133873	0.087368	10819.560547
9905.045086	1.116017	0.087368	11848.528320
9905.045965	1.060078	0.087368	12780.336914
9905.047018	0.189060	0.087368	12979.416992
9905.047916	0.083958	0.087368	13054.810547
9905.048789	0.083840	0.087368	13128.002930
9905.049722	0.083950	0.087368	13206.328125
9905.050713	0.083954	0.087368	13289.526367
9905.051629	0.083873	0.087368	13366.354492
9905.052491	0.083943	0.087368	13438.712891
9905.053553	0.083895	0.087368	13527.809570
9905.054430	0.083958	0.087368	13601.440430
9905.055307	0.083881	0.087368	13675.003906
9905.815033	0.888973	0.318231	422.262329
9905.815933	1.317268	0.318231	1607.803589
9905.816806	1.327478	0.318231	2766.691895
9905.817721	1.300767	0.318231	3956.893311
9905.818663	1.270078	0.318231	5153.306641
9905.819600	1.241136	0.318231	6316.251465
9905.820490	1.214623	0.318231	7397.265625
9905.821406	1.187944	0.318231	8485.422852
9905.822378	1.161112	0.318231	9614.023437
9905.823313	1.136466	0.318231	10676.619141
9905.824185	1.118807	0.318231	11652.218750
9905.825154	1.088112	0.318231	12706.598633
9905.826113	0.299714	0.318231	12994.024414
9905.827005	0.084935	0.318231	13069.787109
9905.827939	0.083811	0.318231	13148.066406
9905.828848	0.083950	0.318231	13224.376953
9905.829793	0.083888	0.318231	13303.651367
9905.830682	0.083873	0.318231	13378.214844
9905.831594	0.083888	0.318231	13454.720703
9905.832560	0.083917	0.318231	13535.785156
9905.833448	0.083994	0.318231	13610.372070
9905.834360	0.083914	0.318231	13686.901367
9907.102146	0.855798	0.075637	369.704895
9907.103009	1.311742	0.075637	1501.738281
9907.104012	1.326867	0.075637	2832.585449
9907.104938	1.299316	0.075637	4035.752441
9907.105811	1.271085	0.075637	5145.409668
9907.106770	1.242451	0.075637	6336.920410
9907.107710	1.213363	0.075637	7477.481445
9907.108652	1.186439	0.075637	8595.107422
9907.109529	1.161844	0.075637	9614.044922
9907.110482	1.136125	0.075637	10696.772461
9907.111443	1.117247	0.075637	11770.447266
9907.112373	1.082446	0.075637	12777.122070
9907.113243	0.297598	0.075637	13036.032227
9907.114211	0.084891	0.075637	13118.207031
9907.115165	0.083862	0.075637	13198.211914
9907.116054	0.083914	0.075637	13272.811523
9907.116962	0.083903	0.075637	13348.995117
9907.117892	0.083870	0.075637	13426.994141
9907.118840	0.083881	0.075637	13506.512695
9907.119728	0.083895	0.075637	13581.011719
9907.120634	0.083877	0.075637	13657.003906
9907.121598	0.083906	0.075637	13737.889648
9907.881403	0.849877	0.318485	357.798096
9907.882452	1.321154	0.318485	1743.688110
9907.883489	1.320820	0.318485	3113.378906
9907.884377	1.293138	0.318485	4261.685547
9907.885361	1.262695	0.318485	5504.177734
9907.886409	1.230231	0.318485	6793.459473
9907.887333	1.202648	0.318485	7904.706055
9907.888199	1.177269	0.318485	8924.221680
9907.889285	1.148654	0.318485	10171.659180
9907.890289	1.125282	0.318485	11301.442383
9907.891165	1.106089	0.318485	12270.375977
9907.892155	0.664636	0.318485	12928.366211
9907.893223	0.090103	0.318485	13024.595703
9907.894118	0.083855	0.318485	13099.645508
9907.894982	0.083976	0.318485	13172.200195
9907.896082	0.084067	0.318485	13264.673828
9907.897057	0.083958	0.318485	13346.532227
9907.897927	0.083903	0.318485	13419.527344
9907.898978	0.084009	0.318485	13507.820312
9907.900020	0.083961	0.318485	13595.307617
9907.900911	0.083972	0.318485	13670.126953
9907.901837	0.083983	0.318485	13747.895508
9909.167602	0.893870	0.077849	419.224854
9909.168530	1.319308	0.077849	1643.542480
9909.169410	1.327346	0.077849	2811.607178
9909.170339	1.299880	0.077849	4019.196045
9909.171302	1.269283	0.077849	5241.516113
9909.172208	1.240737	0.077849	6365.624023
9909.173091	1.214268	0.077849	7437.822266
9909.174012	1.187183	0.077849	8531.217773
9909.174967	1.160845	0.077849	9639.824219
9909.175897	1.136532	0.077849	10696.798828
9909.176764	1.118961	0.077849	11666.938477
9909.177742	1.086984	0.077849	12730.008789
9909.178696	0.287523	0.077849	13004.305664
9909.179591	0.084899	0.077849	13080.290039
9909.180519	0.083789	0.077849	13158.045898
9909.181463	0.083965	0.077849	13237.308594
9909.182385	0.083796	0.077849	13314.569336
9909.183260	0.083928	0.077849	13388.006836
9909.184174	0.083899	0.077849	13464.690430
9909.185131	0.083910	0.077849	13544.992187
9909.186047	0.083895	0.077849	13621.839844
9909.186919	0.083917	0.077849	13695.015625
9909.946841	0.875585	0.317288	393.137543
9909.947714	1.314016	0.317288	1540.273682
9909.948573	1.327617	0.317288	2680.696777
9909.949692	1.296702	0.317288	4131.706055
9909.950588	1.267463	0.317288	5267.353516
9909.951459	1.240397	0.317288	6347.739258
9909.952478	1.209807	0.317288	7580.532715
9909.953492	1.180745	0.317288	8777.807617
9909.954389	1.156344	0.317288	9815.047852
9909.955261	1.132983	0.317288	10803.009766
9909.956356	1.111783	0.317288	12020.412109
9909.957273	0.950142	0.317288	12891.692383
9909.958146	0.162814	0.317288	13033.829102
9909.959206	0.083943	0.317288	13122.808594
9909.960179	0.083939	0.317288	13204.481445
9909.961056	0.083939	0.317288	13278.095703
9909.961917	0.083903	0.317288	13350.335937
9909.963011	0.083873	0.317288	13442.093750
9909.963903	0.083910	0.317288	13516.941406
9909.964777	0.083950	0.317288	13590.313477
9909.965787	0.084005	0.317288	13675.158203
9909.966783	0.083866	0.317288	13758.688477
9911.233029	0.908859	0.071826	445.340698
9911.233914	1.318623	0.071826	1612.322144
9911.234829	1.326108	0.071826	2825.711426
9911.235927	1.293790	0.071826	4246.292969
9911.236865	1.263863	0.071826	5431.796875
9911.237728	1.236888	0.071826	6499.231445
9911.238770	1.205717	0.071826	7755.587891
9911.239813	1.176555	0.071826	8982.734375
9911.240702	1.152173	0.071826	10007.015625
9911.241662	1.129083	0.071826	11090.935547
9911.242728	1.106166	0.071826	12270.108398
9911.243663	0.729254	0.071826	12951.960937
9911.244526	0.104747	0.071826	13042.357422
9911.245610	0.083844	0.071826	13133.244141
9911.246606	0.083855	0.071826	13216.763672
9911.247492	0.083939	0.071826	13291.133789
9911.248471	0.083851	0.071826	13373.224609
9911.249528	0.083884	0.071826	13461.890625
9911.250440	0.083895	0.071826	13538.403320
9911.251301	0.083848	0.071826	13610.595703
9911.252387	0.083914	0.071826	13701.725586
9911.253345	0.083840	0.071826	13782.044922
9912.012237	0.864316	0.320430	376.841949
9912.013209	1.319846	0.320430	1659.732422
9912.014133	1.325508	0.320430	2884.501465
9912.015012	1.298855	0.320430	4026.194824
9912.016003	1.268430	0.320430	5283.208984
9912.016927	1.238833	0.320430	6427.890625
9912.017845	1.211433	0.320430	7539.986328
9912.018726	1.185850	0.320430	8584.719727
9912.019674	1.160035	0.320430	9684.433594
9912.020636	1.134448	0.320430	10775.772461
9912.021530	1.117108	0.320430	11774.466797
9912.022459	1.046521	0.320430	12746.684570
9912.023439	0.224183	0.320430	12966.383789
9912.024364	0.084115	0.320430	13044.190430
9912.025229	0.083950	0.320430	13116.807617
9912.026248	0.083870	0.320430	13202.270508
9912.027133	0.083895	0.320430	13276.517578
9912.028053	0.083895	0.320430	13353.701172
9912.028915	0.083903	0.320430	13426.025391
9912.029871	0.083903	0.320430	13506.236328
9912.030798	0.083936	0.320430	13584.044922
9912.031712	0.083943	0.320430	13660.768555
9913.299483	0.926140	0.071645	468.626892
9913.300366	1.319952	0.071645	1634.144775
9913.301230	1.327566	0.071645	2781.161621
9913.302284	1.296453	0.071645	4147.622559
9913.303242	1.265914	0.071645	5360.368652
9913.304119	1.238723	0.071645	6446.729004
9913.305026	1.210836	0.071645	7544.957520
9913.306125	1.180854	0.071645	8842.716797
9913.307005	1.156000	0.071645	9859.996094
9913.307876	1.133042	0.071645	10846.875977
9913.308905	1.112468	0.071645	11991.605469
9913.309886	0.926455	0.071645	12900.458008
9913.310765	0.150304	0.071645	13032.575195
9913.311645	0.083958	0.071645	13106.458008
9913.312764	0.083928	0.071645	13200.374023
9913.313655	0.084020	0.071645	13275.235352
9913.314518	0.083884	0.071645	13347.627930
9913.315592	0.084009	0.071645	13437.853516
9913.316568	0.083961	0.071645	13519.799805
9913.317439	0.083961	0.071645	13592.929687
9913.318324	0.083921	0.071645	13667.199219
9913.319428	0.083987	0.071645	13759.920898
9914.080732	0.873622	0.316559	388.761719
9914.081613	1.313753	0.316559	1546.177734
9914.082486	1.328602	0.316559	2706.047607
9914.083422	1.301942	0.316559	3924.665527
9914.084365	1.271367	0.316559	5123.564941
9914.085286	1.242147	0.316559	6267.582520
9914.086181	1.215549	0.316559	7355.499023
9914.087107	1.188552	0.316559	8456.098633
9914.088072	1.162203	0.316559	9577.625000
9914.088969	1.138154	0.316559	10598.549805
9914.089882	1.119661	0.316559	11620.799805
9914.090846	1.095846	0.316559	12677.195312
9914.091781	0.337826	0.316559	12993.062500
9914.092645	0.085840	0.316559	13067.228516
9914.093615	0.083870	0.316559	13148.582031
9914.094568	0.083840	0.316559	13228.481445
9914.095500	0.083833	0.316559	13306.614258
9914.096361	0.083892	0.316559	13378.844727
9914.097321	0.083804	0.316559	13459.295898
9914.098279	0.083833	0.316559	13539.607422
9914.099166	0.083969	0.316559	13614.087891
9914.100076	0.083848	0.316559	13690.389648
9915.363795	0.875808	0.074823	386.231384
9915.364666	1.313478	0.074823	1530.270508
9915.365671	1.326365	0.074823	2863.267090
9915.366581	1.298573	0.074823	4044.968506
9915.367503	1.269437	0.074823	5215.389648
9915.368371	1.241777	0.074823	6293.252441
9915.369399	1.211451	0.074823	7538.624512
9915.370310	1.185472	0.074823	8618.589844
9915.371184	1.161288	0.074823	9633.555664
9915.372152	1.136122	0.074823	10733.321289
9915.373111	1.116793	0.074823	11804.326172
9915.374038	1.072207	0.074823	12798.261719
9915.374912	0.272146	0.074823	13036.117187
9915.375942	0.084276	0.074823	13122.921875
9915.376835	0.083756	0.074823	13197.715820
9915.377706	0.083866	0.074823	13270.762695
9915.378612	0.083976	0.074823	13346.844727
9915.379635	0.083877	0.074823	13432.650391
9915.380528	0.083881	0.074823	13507.555664
9915.381417	0.083796	0.074823	13582.050781
9915.382425	0.083947	0.074823	13666.668945
9915.383350	0.083884	0.074823	13744.261719
9916.146108	0.849148	0.321320	359.189575
9916.147073	1.315898	0.321320	1629.031494
9916.148009	1.325317	0.321320	2869.528564
9916.148942	1.297680	0.321320	4080.263672
9916.149806	1.269067	0.321320	5176.737793
9916.150754	1.240027	0.321320	6352.283203
9916.151708	1.211748	0.321320	7508.291016
9916.152610	1.185945	0.321320	8578.013672
9916.153526	1.160753	0.321320	9641.263672
9916.154489	1.135496	0.321320	10734.746094
9916.155425	1.117009	0.321320	11780.266602
9916.156302	1.090964	0.321320	12737.041992
9916.157279	0.257875	0.321320	12988.985352
9916.158225	0.084313	0.321320	13068.745117
9916.159151	0.083972	0.321320	13146.502930
9916.160009	0.083829	0.321320	13218.428711
9916.160983	0.083873	0.321320	13300.121094
9916.161887	0.083895	0.321320	13375.962891
9916.162766	0.083881	0.321320	13449.694336
9916.163706	0.083844	0.321320	13528.507812
9916.164638	0.083844	0.321320	13606.650391
9916.165553	0.083822	0.321320	13683.347656
9917.428160	0.853418	0.076310	363.556030
9917.429116	1.314203	0.076310	1619.933960
9917.430051	1.326460	0.076310	2860.174072
9917.430981	1.298320	0.076310	4067.611816
9917.431852	1.270514	0.076310	5174.229492
9917.432785	1.241038	0.076310	6332.117676
9917.433737	1.212667	0.076310	7486.577148
9917.434635	1.187113	0.076310	8552.604492
9917.435764	1.156077	0.076310	9857.815430
9917.436681	1.132148	0.076310	10895.995117
9917.437592	1.114614	0.076310	11911.408203
9917.438472	1.028990	0.076310	12816.919922
9917.439455	0.182944	0.076310	12996.753906
9917.440401	0.083826	0.076310	13076.052734
9917.441291	0.083928	0.076310	13150.749023
9917.442308	0.083903	0.076310	13236.078125
9917.443216	0.083932	0.076310	13312.288086
9917.444145	0.083833	0.076310	13390.168945
9917.445021	0.083877	0.076310	13463.645508
9917.445961	0.083899	0.076310	13542.510742
9917.446905	0.083848	0.076310	13621.663086
9917.447795	0.083903	0.076310	13696.335937
9918.213606	0.873376	0.316027	409.613556
9918.214533	1.317825	0.316027	1631.237061
9918.215459	1.325999	0.316027	2859.111816
9918.216327	1.299177	0.316027	3986.797607
9918.217280	1.269272	0.316027	5196.414062
9918.218209	1.239734	0.316027	6348.126953
9918.219137	1.212572	0.316027	7473.393555
9918.220009	1.186505	0.316027	8508.026367
9918.220986	1.160068	0.316027	9641.413086
9918.221953	1.134891	0.316027	10738.853516
9918.222851	1.117485	0.316027	11742.355469
9918.223764	1.079301	0.316027	12727.756836
9918.224731	0.274277	0.316027	12992.983398
9918.225655	0.084489	0.316027	13071.050781
9918.226518	0.083917	0.316027	13143.471680
9918.227439	0.083862	0.316027	13220.708984
9918.228385	0.083873	0.316027	13300.052734
9918.229307	0.083939	0.316027	13377.444336
9918.230185	0.083859	0.316027	13451.072266
9918.231293	0.084012	0.316027	13544.158203
9918.232336	0.084023	0.316027	13631.794922
9918.233224	0.083840	0.316027	13706.245117
9919.492611	0.918896	0.083078	455.772675
9919.493533	1.321051	0.083078	1673.781738
9919.494460	1.325651	0.083078	2902.659912
9919.495336	1.298994	0.083078	4040.578857
9919.496249	1.269639	0.083078	5199.758789
9919.497206	1.240247	0.083078	6386.674805
9919.498142	1.212133	0.083078	7521.230957
9919.499022	1.186780	0.083078	8565.597656
9919.499982	1.160735	0.083078	9679.903320
9919.500902	1.135730	0.083078	10724.775391
9919.501789	1.118562	0.083078	11716.939453
9919.502814	1.054149	0.083078	12797.442383
9919.503767	0.219269	0.083078	13006.405273
9919.504701	0.084097	0.083078	13084.951172
9919.505562	0.083840	0.083078	13157.137695
9919.506533	0.083899	0.083078	13238.603516
9919.507476	0.083804	0.083078	13317.630859
9919.508350	0.083972	0.083078	13391.022461
9919.509260	0.083855	0.083078	13467.330078
9919.510187	0.083822	0.083078	13545.033203
9919.511134	0.083881	0.083078	13624.467773
9919.512023	0.083888	0.083078	13699.043945
9920.278041	0.926880	0.317280	468.074341
9920.279043	1.326577	0.317280	1797.304565
9920.279931	1.323691	0.317280	2972.742676
9920.280935	1.293043	0.317280	4270.958008
9920.281988	1.259799	0.317280	5597.525879
9920.282892	1.231816	0.317280	6711.087891
9920.283754	1.204746	0.317280	7749.579102
9920.284866	1.174768	0.317280	9055.920898
9920.285833	1.148522	0.317280	10166.541016
9920.286701	1.127560	0.317280	11145.262695
9920.287778	1.104701	0.317280	12335.025391
9920.288816	0.577156	0.317280	12934.113281
9920.289690	0.091381	0.317280	13013.979492
9920.290603	0.083928	0.317280	13090.605469
9920.291673	0.084086	0.317280	13180.577148
9920.292625	0.083969	0.317280	13260.515625
9920.293490	0.083979	0.317280	13333.158203
9920.294535	0.084064	0.317280	13421.004883
9920.295554	0.083950	0.317280	13506.549805
9920.296439	0.084005	0.317280	13580.894531
9920.297388	0.084001	0.317280	13660.612305
9920.298439	0.084045	0.317280	13748.944336
9921.556999	0.902252	0.086566	442.103577
9921.557934	1.320996	0.086566	1677.234863
9921.558817	1.326321	0.086566	2848.375977
9921.559733	1.298840	0.086566	4038.113770
9921.560687	1.268328	0.086566	5248.098633
9921.561628	1.239357	0.086566	6414.333008
9921.562504	1.212993	0.086566	7476.915039
9921.563489	1.184154	0.086566	8643.306641
9921.564455	1.157754	0.086566	9761.697266
9921.565385	1.133580	0.086566	10815.926758
9921.566252	1.116518	0.086566	11783.948242
9921.567223	1.041800	0.086566	12795.536133
9921.568185	0.216097	0.086566	13003.421875
9921.569068	0.084075	0.086566	13077.660156
9921.569989	0.083851	0.086566	13154.887695
9921.570897	0.083829	0.086566	13231.004883
9921.571803	0.083888	0.086566	13307.007812
9921.572680	0.083866	0.086566	13380.558594
9921.573649	0.083917	0.086566	13461.874023
9921.574597	0.083767	0.086566	13541.285156
9921.575489	0.083917	0.086566	13616.139648
9921.576402	0.083914	0.086566	13692.752930
9922.346433	0.861801	0.307225	372.297852
9922.347308	1.311691	0.307225	1520.027222
9922.348323	1.325786	0.307225	2865.700195
9922.349251	1.297357	0.307225	4069.647705
9922.350176	1.268372	0.307225	5242.891602
9922.351048	1.240708	0.307225	6324.789062
9922.352092	1.210254	0.307225	7588.293945
9922.352982	1.184667	0.307225	8642.647461
9922.353853	1.160431	0.307225	9653.382812
9922.354835	1.134785	0.307225	10767.742187
9922.355781	1.115947	0.307225	11823.428711
9922.356694	1.066761	0.307225	12797.381836
9922.357577	0.266287	0.307225	13032.512695
9922.358619	0.084108	0.307225	13120.153320
9922.359518	0.083899	0.307225	13195.578125
9922.360391	0.083888	0.307225	13268.812500
9922.361319	0.083976	0.307225	13346.742187
9922.362306	0.083910	0.307225	13429.561523
9922.363227	0.083906	0.307225	13506.838867
9922.364105	0.083859	0.307225	13580.466797
9922.365124	0.083884	0.307225	13665.945312
9922.366008	0.083925	0.307225	13740.134766
9923.623356	0.863086	0.083235	366.811523
9923.624456	1.324076	0.083235	1823.295044
9923.625456	1.320535	0.083235	3143.829590
9923.626337	1.293003	0.083235	4282.965332
9923.627355	1.261501	0.083235	5567.173828
9923.628408	1.229308	0.083235	6861.634766
9923.629292	1.202347	0.083235	7924.509766
9923.630177	1.176390	0.083235	8965.615234
9923.631287	1.147310	0.083235	10239.128906
9923.632237	1.125381	0.083235	11308.240234
9923.633106	1.106415	0.083235	12269.714844
9923.634137	0.639888	0.083235	12929.439453
9923.635163	0.089747	0.083235	13021.520508
9923.636054	0.083789	0.083235	13096.176758
9923.636994	0.083895	0.083235	13175.038086
9923.638054	0.083954	0.083235	13264.029297
9923.638991	0.083829	0.083235	13342.577148
9923.639856	0.083895	0.083235	13415.146484
9923.640918	0.084027	0.083235	13504.382812
9923.641931	0.083866	0.083235	13589.338867
9923.642824	0.083892	0.083235	13664.253906
9923.643782	0.083947	0.083235	13744.674805
9924.410809	0.856260	0.313461	362.197876
9924.411860	1.324076	0.313461	1753.801636
9924.412759	1.323999	0.313461	2944.076660
9924.413687	1.295929	0.313461	4146.698730
9924.414558	1.267639	0.313461	5250.812500
9924.415555	1.237943	0.313461	6485.041992
9924.416487	1.209829	0.313461	7612.602539
9924.417361	1.184520	0.313461	8647.873047
9924.418399	1.156575	0.313461	9848.397461
9924.419279	1.132734	0.313461	10845.204102
9924.420193	1.115354	0.313461	11864.637695
9924.421076	1.057522	0.313461	12798.429687
9924.422053	0.205792	0.313461	12999.488281
9924.422982	0.083958	0.313461	13077.484375
9924.423857	0.083888	0.313461	13150.886719
9924.424836	0.083881	0.313461	13233.005859
9924.425750	0.083870	0.313461	13309.663086
9924.426668	0.083925	0.313461	13386.706055
9924.427540	0.083870	0.313461	13459.840820
9924.428493	0.083917	0.313461	13539.813477
9924.429419	0.083903	0.313461	13617.506836
9924.430307	0.083950	0.313461	13692.054687
9925.688791	0.869868	0.086050	384.481720
9925.689654	1.312749	0.086050	1517.384155
9925.690703	1.324966	0.086050	2907.273437
9925.691728	1.293871	0.086050	4233.491211
9925.692604	1.265907	0.086050	5342.425781
9925.693570	1.236240	0.086050	6536.633789
9925.694623	1.205006	0.086050	7805.505371
9925.695539	1.178610	0.086050	8885.111328
9925.696417	1.154169	0.086050	9898.471680
9925.697494	1.128215	0.086050	11113.559570
9925.698493	1.106949	0.086050	12219.402344
9925.699391	0.814504	0.086050	12950.827148
9925.700365	0.113130	0.086050	13061.015625
9925.701423	0.083910	0.086050	13149.791992
9925.702329	0.083870	0.086050	13225.778320
9925.703189	0.083994	0.086050	13298.013672
9925.704294	0.083932	0.086050	13390.758789
9925.705283	0.083884	0.086050	13473.720703
9925.706148	0.083943	0.086050	13546.331055
9925.707214	0.083983	0.086050	13635.857422
9925.708249	0.083851	0.086050	13722.643555
9925.709140	0.083837	0.086050	13797.341797
9926.478320	0.875464	0.308792	414.969849
9926.479246	1.319041	0.308792	1636.401367
9926.480177	1.325658	0.308792	2870.588867
9926.481046	1.299023	0.308792	3999.440186
9926.482011	1.268507	0.308792	5223.549316
9926.482955	1.239031	0.308792	6393.194336
9926.483870	1.211503	0.308792	7501.719238
9926.484757	1.185824	0.308792	8553.544922
9926.485732	1.159204	0.308792	9683.768555
9926.486702	1.133968	0.308792	10783.717773
9926.487598	1.116603	0.308792	11784.193359
9926.488520	1.066674	0.308792	12767.666016
9926.489466	0.244318	0.308792	12998.790039
9926.490389	0.084218	0.308792	13076.522461
9926.491278	0.083928	0.308792	13151.134766
9926.492211	0.083969	0.308792	13229.477539
9926.493164	0.083943	0.308792	13309.474609
9926.494090	0.083859	0.308792	13387.127930
9926.494947	0.083917	0.308792	13459.044922
9926.495902	0.083925	0.308792	13539.193359
9926.496840	0.083925	0.308792	13617.915039
9926.497717	0.083917	0.308792	13691.510742
9927.756223	0.854370	0.083835	364.816040
9927.757085	1.310852	0.083835	1494.770508
9927.758159	1.325083	0.083835	2917.909668
9927.759049	1.297808	0.083835	4072.958496
9927.759918	1.269957	0.083835	5176.551270
9927.760889	1.240298	0.083835	6380.880371
9927.761849	1.211180	0.083835	7543.613281
9927.762769	1.184905	0.083835	8633.725586
9927.763656	1.160358	0.083835	9662.962891
9927.764689	1.133632	0.083835	10834.003906
9927.765593	1.115944	0.083835	11842.817383
9927.766469	1.077239	0.083835	12786.478516
9927.767397	0.277240	0.083835	13043.756836
9927.768412	0.084064	0.083835	13129.081055
9927.769319	0.083961	0.083835	13205.233398
9927.770192	0.083954	0.083835	13278.525391
9927.771187	0.083914	0.083835	13362.019531
9927.772081	0.083906	0.083835	13437.031250
9927.772988	0.083943	0.083835	13513.166992
9927.773869	0.083950	0.083835	13587.126953
9927.774907	0.083895	0.083835	13674.209961
9927.775801	0.083961	0.083835	13749.271484
9928.542715	0.907888	0.315020	433.970551
9928.543649	1.319993	0.315020	1666.843750
9928.544527	1.326090	0.315020	2831.150879
9928.545461	1.298492	0.315020	4043.942871
9928.546430	1.267848	0.315020	5272.487305
9928.547338	1.239108	0.315020	6397.597168
9928.548220	1.212693	0.315020	7467.192383
9928.549154	1.185890	0.315020	8574.813477
9928.550094	1.159460	0.315020	9664.706055
9928.551032	1.135027	0.315020	10729.361328
9928.551906	1.117789	0.315020	11706.309570
9928.552890	1.070024	0.315020	12759.213867
9928.553857	0.242076	0.315020	12993.301758
9928.554746	0.084379	0.315020	13068.314453
9928.555658	0.083881	0.315020	13144.813477
9928.556621	0.083914	0.315020	13225.622070
9928.557540	0.083844	0.315020	13302.674805
9928.558401	0.083914	0.315020	13374.924805
9928.559334	0.083866	0.315020	13453.171875
9928.560288	0.083811	0.315020	13533.127930
9928.561225	0.083954	0.315020	13611.792969
9928.562091	0.083910	0.315020	13684.458984
9929.821668	0.877159	0.084524	395.598907
9929.822545	1.314001	0.084524	1547.978149
9929.823413	1.328881	0.084524	2701.446289
9929.824353	1.302052	0.084524	3925.375244
9929.825286	1.270953	0.084524	5111.174805
9929.826221	1.242447	0.084524	6272.863281
9929.827115	1.215824	0.084524	7359.810059
9929.828034	1.189017	0.084524	8452.516602
9929.829010	1.162306	0.084524	9586.926758
9929.829937	1.137557	0.084524	10641.442383
9929.830807	1.119807	0.084524	11615.674805
9929.831776	1.096677	0.084524	12678.355469
9929.832725	0.337738	0.084524	12998.869141
9929.833627	0.085331	0.084524	13075.837891
9929.834487	0.083800	0.084524	13147.906250
9929.835460	0.083899	0.084524	13229.540039
9929.836392	0.084016	0.084524	13307.842773
9929.837289	0.083943	0.084524	13383.139648
9929.838200	0.083932	0.084524	13459.601562
9929.839164	0.083925	0.084524	13540.504883
9929.840090	0.083844	0.084524	13618.144531
9929.840970	0.083906	0.084524	13691.982422
9930.609091	0.856392	0.317220	366.535583
9930.610125	1.320904	0.317220	1732.350830
9930.611152	1.321399	0.317220	3089.427490
9930.612046	1.293127	0.317220	4245.483398
9930.612997	1.263409	0.317220	5446.985840
9930.614056	1.230941	0.317220	6750.552734
9930.614991	1.203032	0.317220	7875.387695
9930.615856	1.177965	0.317220	8894.327148
9930.616928	1.149488	0.317220	10126.579102
9930.617943	1.125626	0.317220	11269.089844
9930.618823	1.106433	0.317220	12242.750977
9930.619812	0.707223	0.317220	12942.194336
9930.620865	0.092838	0.317220	13039.953125
9930.621765	0.083811	0.317220	13115.382812
9930.622625	0.084042	0.317220	13187.659180
9930.623696	0.084053	0.317220	13277.679687
9930.624686	0.083947	0.317220	13360.787109
9930.625573	0.083925	0.317220	13435.228516
9930.626545	0.084009	0.317220	13516.884766
9930.627603	0.083943	0.317220	13605.696289
9930.628508	0.083983	0.317220	13681.701172
9930.629371	0.083895	0.317220	13754.102539
9931.888055	0.847280	0.080153	356.704987
9931.889024	1.316008	0.080153	1631.916870
9931.889964	1.326127	0.080153	2878.476074
9931.890846	1.299287	0.080153	4024.447266
9931.891757	1.270638	0.080153	5181.999023
9931.892694	1.240818	0.080153	6344.645508
9931.893645	1.212374	0.080153	7497.613281
9931.894539	1.186915	0.080153	8558.715820
9931.895445	1.161346	0.080153	9610.895508
9931.896417	1.135997	0.080153	10715.084961
9931.897351	1.117698	0.080153	11759.014648
9931.898217	1.089976	0.080153	12702.933594
9931.899192	0.300784	0.080153	12996.197266
9931.900144	0.084785	0.080153	13076.913086
9931.901027	0.083877	0.080153	13150.976562
9931.901930	0.083917	0.080153	13226.753906
9931.902846	0.083928	0.080153	13303.631836
9931.903771	0.083958	0.080153	13381.292969
9931.904650	0.083979	0.080153	13455.111328
9931.905623	0.083950	0.080153	13536.794922
9931.906575	0.083979	0.080153	13616.743164
9931.907472	0.083943	0.080153	13692.040039
9932.673590	0.955873	0.319782	521.906555
9932.674563	1.326797	0.319782	1812.879883
9932.675449	1.323252	0.319782	2985.281250
9932.676318	1.295090	0.319782	4110.714844
9932.677458	1.261315	0.319782	5548.613770
9932.678348	1.233479	0.319782	6646.410156
9932.679211	1.207489	0.319782	7688.473145
9932.680289	1.177236	0.319782	8957.534180
9932.681269	1.150419	0.319782	10084.944336
9932.682145	1.128622	0.319782	11073.617187
9932.683021	1.109930	0.319782	12045.916016
9932.684138	0.764941	0.319782	12900.355469
9932.685018	0.108479	0.319782	12995.817383
9932.685887	0.083767	0.319782	13068.611328
9932.686941	0.083965	0.319782	13157.110352
9932.687923	0.083892	0.319782	13239.492187
9932.688791	0.083914	0.319782	13312.329102
9932.689648	0.083888	0.319782	13384.220703
9932.690766	0.083899	0.319782	13478.019531
9932.691666	0.083837	0.319782	13553.472656
9932.692529	0.083961	0.319782	13625.931641
9932.693612	0.083976	0.319782	13716.877930
9933.955515	0.849584	0.077732	360.223511
9933.956563	1.320780	0.077732	1744.400879
9933.957583	1.321615	0.077732	3092.448242
9933.958461	1.293918	0.077732	4228.508789
9933.959441	1.263585	0.077732	5466.822266
9933.960506	1.230795	0.077732	6777.618652
9933.961415	1.203604	0.077732	7871.694336
9933.962277	1.178123	0.077732	8887.236328
9933.963365	1.149067	0.077732	10137.421875
9933.964381	1.125348	0.077732	11280.775391
9933.965274	1.106166	0.077732	12268.581055
9933.966275	0.661033	0.077732	12930.274414
9933.967338	0.090106	0.077732	13026.057617
9933.968230	0.083763	0.077732	13100.774414
9933.969104	0.083895	0.077732	13174.098633
9933.970221	0.083936	0.077732	13267.854492
9933.971178	0.083884	0.077732	13348.131836
9933.972044	0.083990	0.077732	13420.867187
9933.973075	0.083983	0.077732	13507.454102
9933.974102	0.083961	0.077732	13593.682617
9933.974997	0.083939	0.077732	13668.808594
9933.975926	0.083976	0.077732	13746.822266
9934.737906	0.885798	0.322787	411.896240
9934.738797	1.316305	0.322787	1584.723877
9934.739662	1.327610	0.322787	2733.106445
9934.740720	1.296775	0.322787	4105.094238
9934.741602	1.268273	0.322787	5223.710937
9934.742472	1.241305	0.322787	6303.645996
9934.743418	1.213048	0.322787	7451.189453
9934.744401	1.184707	0.322787	8615.756836
9934.745325	1.159222	0.322787	9686.878906
9934.746204	1.135888	0.322787	10685.324219
9934.747233	1.115680	0.322787	11833.359375
9934.748142	1.062184	0.322787	12798.884766
9934.749024	0.250961	0.322787	13020.232422
9934.749888	0.084825	0.322787	13093.521484
9934.750937	0.083936	0.322787	13181.570312
9934.751817	0.083954	0.322787	13255.449219
9934.752688	0.084001	0.322787	13328.614258
9934.753698	0.083884	0.322787	13413.336914
9934.754611	0.083895	0.322787	13489.933594
9934.755510	0.083987	0.322787	13565.437500
9934.756385	0.083906	0.322787	13638.855469
9934.757407	0.083903	0.322787	13724.603516
9936.021951	0.856241	0.071621	365.615112
9936.023012	1.322501	0.071621	1768.788940
9936.024036	1.321022	0.071621	3121.515137
9936.024923	1.292944	0.071621	4268.356445
9936.025910	1.262622	0.071621	5514.564453
9936.026963	1.229989	0.071621	6809.742676
9936.027878	1.202450	0.071621	7909.984375
9936.028754	1.177647	0.071621	8941.602539
9936.029756	1.151049	0.071621	10094.953125
9936.030759	1.126765	0.071621	11225.098633
9936.031638	1.107946	0.071621	12198.982422
9936.032502	0.837982	0.071621	12922.999023
9936.033593	0.102700	0.071621	13035.044922
9936.034507	0.083709	0.071621	13111.554687
9936.035384	0.083760	0.071621	13185.011719
9936.036354	0.083870	0.071621	13266.365234
9936.037370	0.083895	0.071621	13351.602539
9936.038257	0.083928	0.071621	13426.046875
9936.039118	0.083892	0.071621	13498.277344
9936.040184	0.083976	0.071621	13587.795898
9936.041114	0.083815	0.071621	13665.743164
9936.041985	0.083910	0.071621	13738.829102
9936.803255	0.846006	0.328132	357.014465
9936.804174	1.311995	0.328132	1562.737549
9936.805140	1.325867	0.328132	2843.524902
9936.806066	1.298075	0.328132	4045.542480
9936.806935	1.270214	0.328132	5149.358398
9936.807883	1.241393	0.328132	6326.198730
9936.808799	1.212700	0.328132	7437.032227
9936.809729	1.186410	0.328132	8540.393555
9936.810612	1.161533	0.328132	9566.027344
9936.811592	1.135877	0.328132	10679.186523
9936.812554	1.117200	0.328132	11753.932617
9936.813446	1.092389	0.328132	12728.343750
9936.814367	0.329681	0.328132	13031.980469
9936.815327	0.084730	0.328132	13113.321289
9936.816222	0.083903	0.328132	13188.414062
9936.817096	0.083815	0.328132	13261.667969
9936.818049	0.083903	0.328132	13341.626953
9936.819006	0.083859	0.328132	13421.879883
9936.819874	0.083943	0.328132	13494.742187
9936.820777	0.083851	0.328132	13570.459961
9936.821727	0.083903	0.328132	13650.166992
9936.822655	0.083855	0.328132	13727.984375
9938.087384	0.881459	0.072229	387.841858
9938.088272	1.314723	0.072229	1555.315674
9938.089142	1.328459	0.072229	2711.075195
9938.090186	1.298763	0.072229	4066.984131
9938.091079	1.269196	0.072229	5200.375977
9938.091997	1.241100	0.072229	6339.705566
9938.092868	1.213685	0.072229	7396.825195
9938.093912	1.184674	0.072229	8633.625000
9938.094810	1.159988	0.072229	9675.293945
9938.095688	1.136675	0.072229	10673.293945
9938.096659	1.117247	0.072229	11758.140625
9938.097615	1.062074	0.072229	12773.483398
9938.098545	0.244578	0.072229	13000.940430
9938.099411	0.084653	0.072229	13074.250000
9938.100442	0.083829	0.072229	13160.677734
9938.101326	0.083895	0.072229	13234.840820
9938.102200	0.083914	0.072229	13308.181641
9938.103162	0.083914	0.072229	13388.906250
9938.104133	0.083925	0.072229	13470.397461
9938.105032	0.083888	0.072229	13545.812500
9938.105916	0.083925	0.072229	13620.001953
9938.106944	0.083881	0.072229	13706.231445
9938.867665	0.862881	0.332576	384.844849
9938.868628	1.319322	0.332576	1655.352417
9938.869561	1.324841	0.332576	2891.429443
9938.870441	1.298108	0.332576	4033.764404
9938.871355	1.268588	0.332576	5193.253418
9938.872326	1.238954	0.332576	6396.277344
9938.873253	1.211301	0.332576	7519.153809
9938.874135	1.185674	0.332576	8564.917969
9938.875098	1.159688	0.332576	9681.697266
9938.876051	1.134393	0.332576	10762.774414
9938.876954	1.116866	0.332576	11771.304687
9938.877848	1.081256	0.332576	12737.947266
9938.878811	0.257498	0.332576	12985.916992
9938.879753	0.084492	0.332576	13065.508789
9938.880642	0.083932	0.332576	13140.124023
9938.881567	0.083983	0.332576	13217.808594
9938.882531	0.083888	0.332576	13298.676758
9938.883398	0.084009	0.332576	13371.512695
9938.884270	0.083961	0.332576	13444.726562
9938.885217	0.083969	0.332576	13524.245117
9938.886171	0.083969	0.332576	13604.351562
9938.887056	0.083972	0.332576	13678.666992
9940.153839	0.915747	0.070046	430.401093
9940.154794	1.321179	0.070046	1692.127319
9940.155716	1.325310	0.070046	2914.062988
9940.156582	1.298434	0.070046	4038.506836
9940.157564	1.268265	0.070046	5283.943359
9940.158502	1.239027	0.070046	6446.150879
9940.159394	1.211752	0.070046	7527.033203
9940.160273	1.185857	0.070046	8569.401367
9940.161254	1.159299	0.070046	9706.673828
9940.162224	1.133950	0.070046	10806.605469
9940.163111	1.117013	0.070046	11797.396484
9940.164020	1.068669	0.070046	12768.817383
9940.165002	0.236807	0.070046	13001.361328
9940.165887	0.084360	0.070046	13076.020508
9940.166797	0.083829	0.070046	13152.305664
9940.167752	0.083818	0.070046	13232.352539
9940.168674	0.083815	0.070046	13309.629883
9940.169548	0.083892	0.070046	13382.951172
9940.170450	0.083844	0.070046	13458.578125
9940.171408	0.083818	0.070046	13538.875977
9940.172335	0.083932	0.070046	13616.680664
9940.173210	0.083851	0.070046	13690.050781
9940.934103	0.881082	0.328781	391.200195
9940.934967	1.312786	0.328781	1525.447021
9940.936057	1.323160	0.328781	2967.691895
9940.937053	1.292347	0.328781	4254.870117
9940.937930	1.264728	0.328781	5364.036133
9940.938948	1.233922	0.328781	6620.168945
9940.940006	1.202761	0.328781	7892.690430
9940.940892	1.177013	0.328781	8935.523437
9940.941773	1.152136	0.328781	9950.555664
9940.942880	1.126633	0.328781	11197.738281
9940.943836	1.106085	0.328781	12255.156250
9940.944702	0.811501	0.328781	12957.916016
9940.945743	0.101470	0.328781	13063.545898
9940.946772	0.083881	0.328781	13149.859375
9940.947664	0.083851	0.328781	13224.654297
9940.948594	0.083925	0.328781	13302.704102
9940.949663	0.083958	0.328781	13392.455078
9940.950605	0.083914	0.328781	13471.501953
9940.951471	0.083917	0.328781	13544.173828
9940.952529	0.083983	0.328781	13633.028320
9940.953532	0.083983	0.328781	13717.263672
9940.954423	0.084005	0.328781	13792.112305
9942.220225	0.851854	0.077708	362.038055
9942.221091	1.311167	0.077708	1497.508667
9942.222089	1.326383	0.077708	2821.238770
9942.223040	1.298097	0.077708	4055.729004
9942.223921	1.269902	0.077708	5174.512695
9942.224890	1.240034	0.077708	6376.105957
9942.225961	1.207910	0.077708	7669.777832
9942.226948	1.179994	0.077708	8834.431641
9942.227820	1.155890	0.077708	9842.367187
9942.228873	1.129768	0.077708	11032.012695
9942.229927	1.107898	0.077708	12199.737305
9942.230826	0.833306	0.077708	12948.878906
9942.231765	0.121600	0.077708	13063.061523
9942.232837	0.083760	0.077708	13152.851562
9942.233784	0.083899	0.077708	13232.303711
9942.234650	0.083866	0.077708	13304.931641
9942.235714	0.083965	0.077708	13394.270508
9942.236733	0.083906	0.077708	13479.770508
9942.237622	0.083950	0.077708	13554.402344
9942.238574	0.084020	0.077708	13634.389648
9942.239609	0.083928	0.077708	13721.254883
9942.240535	0.083958	0.077708	13799.000000
9942.999624	0.962146	0.339460	537.839600
9943.000551	1.324980	0.339460	1766.096558
9943.001479	1.323157	0.339460	2993.985840
9943.002349	1.295068	0.339460	4120.695312
9943.003400	1.263062	0.339460	5448.172852
9943.004285	1.235874	0.339460	6541.921387
9943.005155	1.209646	0.339460	7594.313477
9943.006162	1.181891	0.339460	8784.477539
9943.007078	1.155626	0.339460	9843.031250
9943.007996	1.131958	0.339460	10882.168945
9943.008876	1.114827	0.339460	11863.216797
9943.009916	0.966482	0.339460	12868.358398
9943.010817	0.166934	0.339460	13018.765625
9943.011695	0.083848	0.339460	13092.383789
9943.012640	0.083954	0.339460	13171.719727
9943.013625	0.083793	0.339460	13254.255859
9943.014540	0.083804	0.339460	13330.936523
9943.015401	0.083873	0.339460	13403.151367
9943.016443	0.083914	0.339460	13490.588867
9943.017319	0.083807	0.339460	13564.003906
9943.018183	0.083906	0.339460	13636.499023
9943.019047	0.083877	0.339460	13708.968750
9944.285755	0.955045	0.089225	524.319763
9944.286729	1.327467	0.089225	1817.272705
9944.287659	1.322289	0.089225	3047.001465
9944.288525	1.294351	0.089225	4167.909180
9944.289629	1.261296	0.089225	5560.380371
9944.290516	1.233600	0.089225	6654.583496
9944.291383	1.207555	0.089225	7701.533691
9944.292480	1.176603	0.089225	8992.266602
9944.293455	1.150155	0.089225	10113.667969
9944.294331	1.128497	0.089225	11102.231445
9944.295220	1.109454	0.089225	12088.536133
9944.296355	0.719487	0.089225	12905.154297
9944.297231	0.101902	0.089225	12994.419922
9944.298097	0.083840	0.089225	13067.025391
9944.299150	0.083925	0.089225	13155.398437
9944.300110	0.083840	0.089225	13235.884766
9944.300987	0.083855	0.089225	13309.425781
9944.301880	0.083928	0.089225	13384.374023
9944.302990	0.083917	0.089225	13477.522461
9944.303887	0.083862	0.089225	13552.747070
9944.304750	0.083998	0.089225	13625.237305
9944.305794	0.084042	0.089225	13712.976562
9945.065914	0.850785	0.332165	361.583588
9945.066850	1.316763	0.332165	1594.073486
9945.067810	1.325039	0.332165	2866.111084
9945.068743	1.297288	0.332165	4076.480469
9945.069612	1.268932	0.332165	5179.182129
9945.070597	1.239518	0.332165	6400.107422
9945.071555	1.210931	0.332165	7560.179687
9945.072429	1.185125	0.332165	8595.978516
9945.073325	1.160145	0.332165	9635.468750
9945.074285	1.134602	0.332165	10724.686523
9945.075244	1.116299	0.332165	11795.216797
9945.076138	1.083973	0.332165	12764.289062
9945.077061	0.284055	0.332165	13026.471680
9945.078021	0.084368	0.332165	13107.464844
9945.078916	0.083914	0.332165	13182.567383
9945.079829	0.083958	0.332165	13259.220703
9945.080792	0.083921	0.332165	13340.036133
9945.081715	0.083815	0.332165	13417.397461
9945.082587	0.083870	0.332165	13490.532227
9945.083505	0.083866	0.332165	13567.521484
9945.084462	0.083866	0.332165	13647.781250
9945.085396	0.083925	0.332165	13726.166992
9946.352060	0.869242	0.091791	370.297058
9946.353107	1.324541	0.091791	1757.091553
9946.353998	1.324559	0.091791	2937.273926
9946.354879	1.297848	0.091791	4080.677734
9946.355884	1.266346	0.091791	5353.355957
9946.356822	1.236914	0.091791	6513.581055
9946.357752	1.209364	0.091791	7638.289551
9946.358618	1.183868	0.091791	8663.519531
9946.359672	1.155736	0.091791	9881.665039
9946.360558	1.132460	0.091791	10885.024414
9946.361427	1.115863	0.091791	11854.708984
9946.362398	0.992351	0.091791	12818.282227
9946.363352	0.182563	0.091791	12992.448242
9946.364267	0.083899	0.091791	13069.215820
9946.365143	0.083851	0.091791	13142.669922
9946.366158	0.083932	0.091791	13227.860352
9946.367047	0.083895	0.091791	13302.443359
9946.367920	0.083917	0.091791	13375.703125
9946.368827	0.083950	0.091791	13451.845703
9946.369859	0.083877	0.091791	13538.406250
9946.370749	0.083925	0.091791	13613.098633
9946.371617	0.083899	0.091791	13685.922852
9947.131324	0.846694	0.336479	361.538483
9947.132200	1.310750	0.336479	1509.755005
9947.133067	1.328738	0.336479	2661.770508
9947.134026	1.300891	0.336479	3909.325195
9947.134980	1.270433	0.336479	5121.318359
9947.135917	1.241997	0.336479	6285.069336
9947.136779	1.215242	0.336479	7332.607422
9947.137736	1.187776	0.336479	8469.308594
9947.138701	1.161394	0.336479	9590.053711
9947.139591	1.137495	0.336479	10602.424805
9947.140507	1.119251	0.336479	11627.658203
9947.141463	1.096143	0.336479	12675.570312
9947.142398	0.324628	0.336479	12979.097656
9947.143287	0.085569	0.336479	13055.167969
9947.144220	0.083815	0.336479	13133.367187
9947.145172	0.083855	0.336479	13213.197266
9947.146049	0.083983	0.336479	13286.850586
9947.146967	0.083965	0.336479	13363.930664
9947.147907	0.083888	0.336479	13442.785156
9947.148830	0.083969	0.336479	13520.288086
9947.149706	0.083906	0.336479	13593.790039
9947.150632	0.083800	0.336479	13671.388672
9948.418486	0.844277	0.095263	354.596497
9948.419436	1.313793	0.095263	1602.699463
9948.420377	1.326149	0.095263	2850.605469
9948.421299	1.298481	0.095263	4047.805420
9948.422167	1.270521	0.095263	5150.618164
9948.423136	1.241459	0.095263	6353.591797
9948.424066	1.213092	0.095263	7481.767578
9948.424961	1.186721	0.095263	8543.882812
9948.425841	1.161844	0.095263	9566.305664
9948.426822	1.136166	0.095263	10680.884766
9948.427787	1.117159	0.095263	11758.943359
9948.428688	1.091188	0.095263	12742.103516
9948.429608	0.318530	0.095263	13035.151367
9948.430576	0.084617	0.095263	13117.060547
9948.431468	0.083892	0.095263	13191.891602
9948.432371	0.083888	0.095263	13267.642578
9948.433339	0.083862	0.095263	13348.821289
9948.434277	0.083870	0.095263	13427.491211
9948.435158	0.083881	0.095263	13501.389648
9948.436062	0.083866	0.095263	13577.204102
9948.437011	0.083936	0.095263	13656.859375
9948.437958	0.083848	0.095263	13736.262695
9949.197840	0.899696	0.324797	458.845001
9949.198898	1.326522	0.324797	1862.305542
9949.199829	1.320641	0.324797	3091.822266
9949.200695	1.293105	0.324797	4211.651367
9949.201756	1.260157	0.324797	5548.678711
9949.202775	1.228850	0.324797	6800.876953
9949.203657	1.202673	0.324797	7861.634766
9949.204644	1.175402	0.324797	9021.755859
9949.205697	1.146603	0.324797	10229.128906
9949.206604	1.125579	0.324797	11250.028320
9949.207465	1.106206	0.324797	12202.471680
9949.208575	0.619523	0.324797	12890.141602
9949.209564	0.089319	0.324797	12978.477539
9949.210440	0.083837	0.324797	13051.917969
9949.211432	0.083979	0.324797	13135.225586
9949.212481	0.083895	0.324797	13223.231445
9949.213369	0.083976	0.324797	13297.801758
9949.214240	0.083925	0.324797	13370.900391
9949.215331	0.084056	0.324797	13462.605469
9949.216288	0.083921	0.324797	13542.917969
9949.217155	0.083807	0.324797	13615.579102
9949.218193	0.084020	0.324797	13702.791992
9950.481881	0.873131	0.096730	387.670197
9950.482747	1.313002	0.096730	1524.729614
9950.483713	1.326713	0.096730	2806.333984
9950.484647	1.298390	0.096730	4019.030273
9950.485577	1.269357	0.096730	5199.531738
9950.486445	1.241682	0.096730	6277.312012
9950.487418	1.212828	0.096730	7457.394043
9950.488373	1.185809	0.096730	8589.841797
9950.489270	1.160896	0.096730	9631.166016
9950.490192	1.136697	0.096730	10679.200195
9950.491153	1.117654	0.096730	11753.265625
9950.492075	1.083948	0.096730	12752.665039
9950.492963	0.297986	0.096730	13017.276367
9950.493896	0.085038	0.096730	13096.616211
9950.494842	0.083837	0.096730	13175.925781
9950.495762	0.083943	0.096730	13253.153320
9950.496621	0.083873	0.096730	13325.200195
9950.497567	0.083954	0.096730	13404.620117
9950.498503	0.083822	0.096730	13483.077148
9950.499386	0.083870	0.096730	13557.133789
9950.500299	0.083862	0.096730	13633.700195
9950.501255	0.083818	0.096730	13713.830078
9951.264182	0.849342	0.317695	359.271698
9951.265249	1.322194	0.317695	1770.052368
9951.266201	1.322355	0.317695	3028.934082
9951.267077	1.295076	0.317695	4163.420410
9951.268020	1.265424	0.317695	5356.714844
9951.269071	1.233362	0.317695	6652.978027
9951.269954	1.206760	0.317695	7718.547363
9951.270817	1.181832	0.317695	8738.468750
9951.271885	1.153319	0.317695	9970.213867
9951.272832	1.129383	0.317695	11039.740234
9951.273698	1.112029	0.317695	12002.756836
9951.274640	0.915839	0.317695	12865.476562
9951.275703	0.125933	0.317695	12999.342773
9951.276600	0.083818	0.317695	13074.528320
9951.277462	0.083976	0.317695	13146.915039
9951.278493	0.083972	0.317695	13233.490234
9951.279458	0.083906	0.317695	13314.459961
9951.280334	0.083914	0.317695	13387.967773
9951.281220	0.083961	0.317695	13462.357422
9951.282313	0.083877	0.317695	13554.035156
9951.283204	0.083884	0.317695	13628.776367
9951.284069	0.083917	0.317695	13701.365234
9952.550393	0.893804	0.080056	426.344360
9952.551293	1.317598	0.080056	1612.182251
9952.552176	1.327236	0.080056	2784.131836
9952.553109	1.299910	0.080056	3996.947754
9952.554073	1.269265	0.080056	5220.519531
9952.554982	1.240587	0.080056	6348.213379
9952.555865	1.214275	0.080056	7420.417969
9952.556815	1.187172	0.080056	8548.230469
9952.557752	1.160823	0.080056	9635.921875
9952.558666	1.136580	0.080056	10674.755859
9952.559534	1.118789	0.080056	11645.865234
9952.560502	1.091587	0.080056	12702.521484
9952.561464	0.299747	0.080056	12990.878906
9952.562347	0.085042	0.080056	13065.970703
9952.563271	0.083884	0.080056	13143.479492
9952.564226	0.084005	0.080056	13223.704102
9952.565148	0.083928	0.080056	13301.085937
9952.566013	0.083994	0.080056	13373.741211
9952.566938	0.084082	0.080056	13451.517578
9952.567899	0.083884	0.080056	13532.130859
9952.568788	0.083990	0.080056	13606.798828
9952.569829	0.083936	0.080056	13694.175781
9953.333696	0.854692	0.306778	365.808350
9953.334676	1.314434	0.306778	1653.953247
9953.335689	1.322831	0.306778	2993.980957
9953.336575	1.295420	0.306778	4141.723145
9953.337438	1.267035	0.306778	5235.174316
9953.338538	1.234475	0.306778	6593.096680
9953.339457	1.206698	0.306778	7702.052246
9953.340334	1.181895	0.306778	8738.574219
9953.341326	1.154989	0.306778	9884.323242
9953.342330	1.129380	0.306778	11018.220703
9953.343213	1.111853	0.306778	11999.987305
9953.344083	0.953016	0.306778	12829.111328
9953.345168	0.132209	0.306778	12972.558594
9953.346095	0.083745	0.306778	13050.190430
9953.346973	0.083895	0.306778	13123.850586
9953.347941	0.083987	0.306778	13205.149414
9953.348964	0.083910	0.306778	13290.989258
9953.349854	0.083958	0.306778	13365.711914
9953.350715	0.083895	0.306778	13437.945312
9953.351778	0.083881	0.306778	13527.110352
9953.352707	0.083866	0.306778	13605.021484
9953.353582	0.083906	0.306778	13678.439453
9954.615745	0.853835	0.076370	365.441589
9954.616682	1.314998	0.076370	1597.594238
9954.617641	1.325581	0.076370	2868.826660
9954.618562	1.298038	0.076370	4064.319824
9954.619431	1.269781	0.076370	5167.759766
9954.620384	1.240789	0.076370	6350.231445
9954.621342	1.212133	0.076370	7511.454590
9954.622233	1.186359	0.076370	8568.500000
9954.623154	1.161519	0.076370	9638.258789
9954.624079	1.135891	0.076370	10688.958008
9954.625047	1.117277	0.076370	11770.481445
9954.625941	1.090858	0.076370	12745.708984
9954.626885	0.291248	0.076370	13020.646484
9954.627837	0.084576	0.076370	13101.163086
9954.628720	0.083881	0.076370	13175.229492
9954.629643	0.083914	0.076370	13252.681641
9954.630564	0.083958	0.076370	13330.006836
9954.631509	0.083877	0.076370	13409.270508
9954.632398	0.083947	0.076370	13483.899414
9954.633307	0.083844	0.076370	13560.113281
9954.634268	0.083976	0.076370	13640.814453
9954.635190	0.083961	0.076370	13718.226562
9955.397056	0.854041	0.327351	365.529358
9955.397997	1.311823	0.327351	1599.954346
9955.398998	1.324351	0.327351	2925.629395
9955.399926	1.295984	0.327351	4128.302734
9955.400795	1.268101	0.327351	5230.282227
9955.401857	1.236266	0.327351	6543.196777
9955.402739	1.209239	0.327351	7609.746094
9955.403606	1.184096	0.327351	8636.357422
9955.404478	1.158578	0.327351	9646.637695
9955.405555	1.131929	0.327351	10865.724609
9955.406460	1.114548	0.327351	11874.390625
9955.407336	1.064169	0.327351	12806.602539
9955.408339	0.216764	0.327351	13024.016602
9955.409267	0.083815	0.327351	13101.796875
9955.410184	0.083884	0.327351	13178.718750
9955.411045	0.083837	0.327351	13250.902344
9955.412079	0.083859	0.327351	13337.612305
9955.412959	0.083939	0.327351	13411.478516
9955.413825	0.083862	0.327351	13484.103516
9955.414789	0.083939	0.327351	13565.020508
9955.415745	0.083811	0.327351	13645.143555
9955.416658	0.083892	0.327351	13721.736328
9956.683194	0.851528	0.085100	358.493439
9956.684238	1.321176	0.085100	1737.800659
9956.685253	1.321707	0.085100	3079.332764
9956.686142	1.293820	0.085100	4229.538086
9956.687111	1.263765	0.085100	5454.125977
9956.688172	1.231172	0.085100	6760.399414
9956.689100	1.203354	0.085100	7877.112305
9956.689968	1.177969	0.085100	8899.588867
9956.691055	1.149170	0.085100	10148.736328
9956.692061	1.125659	0.085100	11281.149414
9956.692942	1.106616	0.085100	12256.078125
9956.693952	0.676289	0.085100	12939.129883
9956.695000	0.091414	0.085100	13034.931641
9956.695885	0.083778	0.085100	13109.075195
9956.696748	0.083954	0.085100	13181.527344
9956.697828	0.083961	0.085100	13272.205078
9956.698813	0.083888	0.085100	13354.834961
9956.699690	0.083936	0.085100	13428.446289
9956.700683	0.084020	0.085100	13511.877930
9956.701743	0.084023	0.085100	13600.942383
9956.702628	0.083928	0.085100	13675.218750
9956.703504	0.083979	0.085100	13748.785156
9957.464501	0.848379	0.327677	355.470764
9957.465480	1.318828	0.327677	1646.603516
9957.466407	1.325149	0.327677	2875.016602
9957.467304	1.297885	0.327677	4039.219238
9957.468168	1.269547	0.327677	5136.107910
9957.469164	1.239719	0.327677	6370.868164
9957.470118	1.211360	0.327677	7526.505371
9957.470997	1.185992	0.327677	8568.992187
9957.471909	1.160497	0.327677	9627.365234
9957.472875	1.135031	0.327677	10723.804687
9957.473807	1.117009	0.327677	11764.857422
9957.474686	1.086610	0.327677	12719.987305
9957.475632	0.299989	0.327677	13003.777344
9957.476571	0.084426	0.327677	13083.053711
9957.477502	0.083855	0.327677	13161.123047
9957.478365	0.083840	0.327677	13233.477539
9957.479335	0.083855	0.327677	13314.816406
9957.480262	0.083895	0.327677	13392.586914
9957.481122	0.084009	0.327677	13464.833984
9957.482130	0.083866	0.327677	13549.371094
9957.483056	0.083903	0.327677	13627.064453
9957.483972	0.083848	0.327677	13703.869141
9958.751718	0.889885	0.082139	413.796631
9958.752596	1.315290	0.082139	1568.621704
9958.753460	1.327906	0.082139	2715.932861
9958.754538	1.296764	0.082139	4113.844727
9958.755484	1.266526	0.082139	5311.978027
9958.756358	1.239445	0.082139	6395.252441
9958.757315	1.211235	0.082139	7554.404785
9958.758349	1.181605	0.082139	8776.184570
9958.759238	1.156985	0.082139	9804.744141
9958.760098	1.134108	0.082139	10780.077148
9958.761177	1.112798	0.082139	11980.786133
9958.762110	0.962029	0.082139	12878.359375
9958.762994	0.169768	0.082139	13028.434570
9958.763940	0.084009	0.082139	13107.907227
9958.764992	0.083785	0.082139	13196.049805
9958.765887	0.083906	0.082139	13271.145508
9958.766755	0.083954	0.082139	13344.017578
9958.767810	0.084005	0.082139	13432.642578
9958.768772	0.083822	0.082139	13513.279297
9958.769650	0.083881	0.082139	13586.926758
9958.770567	0.083903	0.082139	13663.865234
9958.771630	0.083877	0.082139	13753.026367
9959.531956	0.859189	0.323524	363.437134
9959.532931	1.318649	0.323524	1649.119629
9959.533880	1.324805	0.323524	2906.359375
9959.534773	1.297562	0.323524	4065.082520
9959.535693	1.268496	0.323524	5232.098633
9959.536654	1.239262	0.323524	6423.028809
9959.537578	1.211440	0.323524	7542.399902
9959.538440	1.186208	0.323524	8564.912109
9959.539367	1.160010	0.323524	9640.241211
9959.540330	1.134844	0.323524	10733.095703
9959.541256	1.116954	0.323524	11767.395508
9959.542141	1.078612	0.323524	12721.966797
9959.543118	0.275552	0.323524	12991.180664
9959.544050	0.084360	0.323524	13069.804687
9959.544916	0.083851	0.323524	13142.419922
9959.545863	0.083895	0.323524	13221.869141
9959.546793	0.083859	0.323524	13299.857422
9959.547719	0.083873	0.323524	13377.524414
9959.548581	0.083884	0.323524	13449.833008
9959.549528	0.083826	0.323524	13529.215820
9959.550487	0.083881	0.323524	13609.657227
9959.551376	0.083851	0.323524	13684.201172
9960.818182	0.907240	0.079331	454.527222
9960.819090	1.320447	0.079331	1653.492798
9960.820019	1.325442	0.079331	2884.828369
9960.820883	1.298734	0.079331	4006.934570
9960.821884	1.267844	0.079331	5276.046875
9960.822813	1.239148	0.079331	6427.215332
9960.823694	1.212481	0.079331	7495.410645
9960.824594	1.186219	0.079331	8563.007812
9960.825549	1.159688	0.079331	9670.509766
9960.826481	1.135155	0.079331	10728.474609
9960.827366	1.117346	0.079331	11717.326172
9960.828394	1.053541	0.079331	12800.366211
9960.829296	0.240450	0.079331	13017.252930
9960.830216	0.084302	0.079331	13094.810547
9960.831080	0.083829	0.079331	13167.239258
9960.832066	0.083914	0.079331	13249.978516
9960.832995	0.083910	0.079331	13327.930664
9960.833875	0.083914	0.079331	13401.774414
9960.834798	0.083822	0.079331	13479.142578
9960.835753	0.083789	0.079331	13559.161133
9960.836656	0.083892	0.079331	13634.915039
9960.837531	0.083954	0.079331	13708.375000
9961.599475	0.884711	0.324446	422.007019
9961.600414	1.319506	0.324446	1661.022705
9961.601292	1.325786	0.324446	2825.062988
9961.602209	1.298990	0.324446	4016.237305
9961.603150	1.268291	0.324446	5209.699219
9961.604104	1.239045	0.324446	6391.748535
9961.604979	1.212543	0.324446	7452.723633
9961.605894	1.185959	0.324446	8537.876953
9961.606860	1.159559	0.324446	9658.011719
9961.607795	1.134921	0.324446	10719.162109
9961.608675	1.117687	0.324446	11702.726562
9961.609651	1.072753	0.324446	12749.733398
9961.610601	0.254048	0.324446	12991.079102
9961.611505	0.084324	0.324446	13067.307617
9961.612367	0.083855	0.324446	13139.590820
9961.613339	0.083903	0.324446	13221.144531
9961.614300	0.083892	0.324446	13301.764648
9961.615177	0.083914	0.324446	13375.356445
9961.616118	0.083917	0.324446	13454.322266
9961.617208	0.083943	0.324446	13545.820312
9961.618214	0.083851	0.324446	13630.174805
9961.619090	0.083903	0.324446	13703.673828
9962.883513	0.849280	0.079645	360.943909
9962.884484	1.312745	0.079645	1635.619629
9962.885392	1.326475	0.079645	2840.058594
9962.886313	1.298756	0.079645	4036.212891
9962.887186	1.270924	0.079645	5145.729492
9962.888174	1.240268	0.079645	6371.114746
9962.889099	1.212513	0.079645	7492.689453
9962.890027	1.186176	0.079645	8593.460937
9962.890891	1.161416	0.079645	9596.924805
9962.891852	1.136147	0.079645	10688.762695
9962.892812	1.117167	0.079645	11761.243164
9962.893709	1.090876	0.079645	12739.759766
9962.894630	0.319702	0.079645	13034.205078
9962.895563	0.084800	0.079645	13113.323242
9962.896500	0.083855	0.079645	13191.895508
9962.897388	0.083925	0.079645	13266.420898
9962.898318	0.083958	0.079645	13344.500977
9962.899280	0.083881	0.079645	13425.194336
9962.900154	0.083873	0.079645	13498.500000
9962.901123	0.083939	0.079645	13579.836914
9962.902039	0.083822	0.079645	13656.618164
9962.902976	0.083899	0.079645	13735.231445
9963.665849	0.849053	0.326573	358.300262
9963.666914	1.321791	0.326573	1766.007568
9963.667938	1.320051	0.326573	3117.740234
9963.668837	1.291941	0.326573	4279.195312
9963.669821	1.261490	0.326573	5520.501953
9963.670876	1.228909	0.326573	6817.000977
9963.671787	1.201740	0.326573	7911.785645
9963.672653	1.176551	0.326573	8930.679687
9963.673743	1.147738	0.326573	10181.713867
9963.674749	1.124341	0.326573	11312.800781
9963.675630	1.105148	0.326573	12286.435547
9963.676655	0.629165	0.326573	12931.330078
9963.677697	0.089462	0.326573	13024.548828
9963.678583	0.083837	0.326573	13098.828125
9963.679441	0.083892	0.326573	13170.806641
9963.680551	0.084012	0.326573	13264.060547
9963.681507	0.083943	0.326573	13344.309570
9963.682371	0.083906	0.326573	13416.804687
9963.683408	0.083958	0.326573	13503.868164
9963.684453	0.083818	0.326573	13591.458008
9963.685342	0.083979	0.326573	13666.116211
9963.686252	0.084053	0.326573	13742.604492
9964.952043	0.900857	0.083472	420.700165
9964.952969	1.319322	0.083472	1642.392822
9964.953895	1.325742	0.083472	2870.030273
9964.954766	1.298980	0.083472	4001.441406
9964.955746	1.268668	0.083472	5244.736328
9964.956691	1.239613	0.083472	6416.170898
9964.957557	1.213059	0.083472	7466.680176
9964.958509	1.185908	0.083472	8595.665039
9964.959473	1.159680	0.083472	9713.596680
9964.960363	1.135657	0.083472	10724.331055
9964.961245	1.118093	0.083472	11710.489258
9964.962204	1.076624	0.083472	12742.970703
9964.963166	0.257908	0.083472	12991.078125
9964.964057	0.084646	0.083472	13066.498047
9964.964972	0.083804	0.083472	13143.178711
9964.965923	0.083906	0.083472	13222.973633
9964.966839	0.083866	0.083472	13299.794922
9964.967702	0.083969	0.083472	13372.259766
9964.968630	0.083921	0.083472	13450.138672
9964.969571	0.083906	0.083472	13529.094727
9964.970487	0.083939	0.083472	13605.983398
9964.971361	0.083914	0.083472	13679.324219
9965.733396	0.917765	0.332322	459.800201
9965.734403	1.325427	0.332322	1794.505371
9965.735298	1.323124	0.332322	2978.701172
9965.736279	1.293281	0.332322	4247.410156
9965.737344	1.259509	0.332322	5588.787598
9965.738251	1.231490	0.332322	6705.749512
9965.739118	1.204959	0.332322	7750.448730
9965.740207	1.174991	0.332322	9030.014648
9965.741195	1.147994	0.332322	10164.233398
9965.742076	1.127033	0.332322	11157.149414
9965.743098	1.105635	0.332322	12287.108398
9965.744168	0.597158	0.332322	12926.067383
9965.745042	0.092227	0.332322	13006.673828
9965.745898	0.083899	0.332322	13078.491211
9965.747018	0.083976	0.332322	13172.543945
9965.747983	0.083950	0.332322	13253.555664
9965.748843	0.083976	0.332322	13325.774414
9965.749861	0.084023	0.332322	13411.310547
9965.750907	0.084016	0.332322	13499.191406
9965.751792	0.084027	0.332322	13573.555664
9965.752714	0.083976	0.332322	13650.981445
9965.753773	0.083947	0.332322	13739.880859
9967.020502	0.882960	0.082679	391.151367
9967.021381	1.313705	0.082679	1545.897949
9967.022315	1.326724	0.082679	2785.057861
9967.023291	1.298265	0.082679	4052.164795
9967.024221	1.268866	0.082679	5232.209961
9967.025084	1.241393	0.082679	6303.531738
9967.026048	1.212905	0.082679	7472.772461
9967.027011	1.185502	0.082679	8614.410156
9967.027910	1.160372	0.082679	9657.584961
9967.028806	1.135873	0.082679	10675.327148
9967.029936	1.113688	0.082679	11933.793945
9967.030952	0.923152	0.082679	12871.715820
9967.031852	0.148396	0.082679	13005.272461
9967.032825	0.083950	0.082679	13086.956055
9967.033876	0.083961	0.082679	13175.199219
9967.034789	0.083994	0.082679	13251.885742
9967.035649	0.083976	0.082679	13324.104492
9967.036737	0.084045	0.082679	13415.545898
9967.037734	0.083917	0.082679	13499.210937
9967.038628	0.084020	0.082679	13574.324219
9967.039634	0.084163	0.082679	13658.992187
9967.040682	0.083987	0.082679	13747.010742
9967.799734	0.856227	0.333131	359.615265
9967.800795	1.323541	0.333131	1763.892578
9967.801692	1.323750	0.333131	2951.296387
9967.802569	1.296921	0.333131	4088.696289
9967.803537	1.266702	0.333131	5314.863281
9967.804516	1.236464	0.333131	6525.361328
9967.805443	1.208727	0.333131	7645.851074
9967.806309	1.183715	0.333131	8670.948242
9967.807374	1.155165	0.333131	9901.199219
9967.808256	1.131833	0.333131	10899.476562
9967.809123	1.115229	0.333131	11866.380859
9967.810045	0.996387	0.333131	12785.049805
9967.811043	0.172650	0.333131	12957.354492
9967.811977	0.083752	0.333131	13035.579102
9967.812852	0.083928	0.333131	13109.016602
9967.813836	0.083932	0.333131	13191.605469
9967.814749	0.083833	0.333131	13268.144531
9967.815665	0.083815	0.333131	13344.918945
9967.816529	0.083972	0.333131	13417.470703
9967.817567	0.083895	0.333131	13504.553711
9967.818451	0.083928	0.333131	13578.746094
9967.819318	0.083906	0.333131	13651.493164
9969.087937	0.855905	0.091154	367.183044
9969.088802	1.310845	0.091154	1501.063721
9969.089885	1.323871	0.091154	2934.815918
9969.090869	1.293809	0.091154	4207.923828
9969.091764	1.265607	0.091154	5340.641602
9969.092762	1.235442	0.091154	6573.612305
9969.093838	1.203864	0.091154	7868.969727
9969.094717	1.178247	0.091154	8904.648437
9969.095592	1.153162	0.091154	9913.665039
9969.096701	1.127538	0.091154	11164.104492
9969.097666	1.107096	0.091154	12232.452148
9969.098530	0.837001	0.091154	12955.621094
9969.099574	0.106670	0.091154	13066.984375
9969.100608	0.083914	0.091154	13153.750977
9969.101486	0.083906	0.091154	13227.420898
9969.102414	0.083972	0.091154	13305.346680
9969.103480	0.083943	0.091154	13394.830078
9969.104426	0.083895	0.091154	13474.195312
9969.105294	0.083936	0.091154	13547.051758
9969.106334	0.083936	0.091154	13634.344727
9969.107357	0.083789	0.091154	13720.060547
9969.108242	0.083892	0.091154	13794.304687
9969.867294	0.945106	0.330489	496.180756
9969.868196	1.321212	0.330489	1687.914185
9969.869125	1.324325	0.330489	2918.211914
9969.869995	1.297185	0.330489	4046.762939
9969.871013	1.265676	0.330489	5335.221191
9969.871940	1.237240	0.330489	6482.142578
9969.872825	1.210510	0.330489	7553.444336
9969.873756	1.184443	0.330489	8656.161133
9969.874694	1.158065	0.330489	9742.425781
9969.875639	1.133397	0.330489	10813.486328
9969.876513	1.116464	0.330489	11789.275391
9969.877431	1.056211	0.330489	12758.876953
9969.878400	0.238737	0.330489	12990.212891
9969.879313	0.084280	0.330489	13067.160156
9969.880189	0.083862	0.330489	13140.623047
9969.881163	0.083947	0.330489	13222.386719
9969.882091	0.083969	0.330489	13300.309570
9969.882952	0.083969	0.330489	13372.606445
9969.884029	0.083895	0.330489	13462.961914
9969.884967	0.083892	0.330489	13541.652344
9969.885891	0.083976	0.330489	13619.246094
9969.886754	0.083866	0.330489	13691.622070
9971.157450	0.854667	0.088318	370.925354
9971.158323	1.312108	0.088318	1516.395752
9971.159213	1.327485	0.088318	2697.857910
9971.160308	1.296863	0.088318	4117.922852
9971.161199	1.268123	0.088318	5247.820312
9971.162066	1.241133	0.088318	6323.882324
9971.163119	1.209847	0.088318	7597.851562
9971.164094	1.181971	0.088318	8750.273437
9971.164970	1.157648	0.088318	9764.373047
9971.165858	1.133804	0.088318	10771.190430
9971.166960	1.112992	0.088318	11997.707031
9971.167836	0.997705	0.088318	12871.696289
9971.168705	0.193180	0.088318	13039.569336
9971.169753	0.084049	0.088318	13127.652344
9971.170736	0.083855	0.088318	13210.082031
9971.171607	0.083965	0.088318	13283.215820
9971.172470	0.083998	0.088318	13355.706055
9971.173573	0.083947	0.088318	13448.298828
9971.174484	0.083877	0.088318	13524.710937
9971.175354	0.083990	0.088318	13597.782227
9971.176438	0.083979	0.088318	13688.816406
9971.177412	0.083925	0.088318	13770.558594
9971.933625	0.858135	0.338815	362.990997
9971.934603	1.318224	0.338815	1652.213989
9971.935539	1.324688	0.338815	2892.121582
9971.936425	1.297690	0.338815	4041.875244
9971.937331	1.269232	0.338815	5191.799805
9971.938298	1.239624	0.338815	6390.516113
9971.939224	1.211792	0.338815	7512.635742
9971.940092	1.186414	0.338815	8542.442383
9971.941054	1.160299	0.338815	9658.650391
9971.941974	1.134844	0.338815	10702.707031
9971.942901	1.117291	0.338815	11738.435547
9971.943780	1.085215	0.338815	12692.339844
9971.944754	0.288739	0.338815	12973.571289
9971.945709	0.084664	0.338815	13054.425781
9971.946597	0.083840	0.338815	13128.875977
9971.947506	0.083884	0.338815	13205.126953
9971.948460	0.083917	0.338815	13285.183594
9971.949374	0.083870	0.338815	13361.840820
9971.950242	0.083895	0.338815	13434.662109
9971.951171	0.083873	0.338815	13512.580078
9971.952125	0.083829	0.338815	13592.553711
9971.953029	0.083870	0.338815	13668.372070
9973.224901	0.858406	0.090155	370.831299
9973.225765	1.310958	0.090155	1503.499268
9973.226817	1.325207	0.090155	2897.617676
9973.227721	1.297412	0.090155	4070.478271
9973.228598	1.269521	0.090155	5183.848633
9973.229507	1.241188	0.090155	6312.088379
9973.230526	1.210950	0.090155	7546.045898
9973.231440	1.184974	0.090155	8629.112305
9973.232306	1.160944	0.090155	9634.489258
9973.233403	1.132928	0.090155	10877.311523
9973.234290	1.115424	0.090155	11866.692383
9973.235159	1.067662	0.090155	12794.491211
9973.236040	0.264093	0.090155	13027.157227
9973.237084	0.083998	0.090155	13114.850586
9973.237981	0.083884	0.090155	13190.094727
9973.238855	0.083990	0.090155	13263.501953
9973.239841	0.083928	0.090155	13346.254883
9973.240784	0.083895	0.090155	13425.368164
9973.241699	0.084053	0.090155	13502.276367
9973.242563	0.083998	0.090155	13574.850586
9973.243595	0.083928	0.090155	13661.464844
9973.244479	0.083903	0.090155	13735.634766
9974.000064	0.853140	0.341337	365.996918
9974.000929	1.310369	0.341337	1499.465820
9974.001914	1.326280	0.341337	2805.852051
9974.002877	1.297833	0.341337	4055.665527
9974.003772	1.269089	0.341337	5191.500488
9974.004676	1.241375	0.341337	6313.703125
9974.005613	1.212729	0.341337	7450.030762
9974.006575	1.185333	0.341337	8590.321289
9974.007456	1.160764	0.341337	9612.954102
9974.008373	1.136184	0.341337	10654.834961
9974.009337	1.117240	0.341337	11731.854492
9974.010229	1.094106	0.341337	12707.797852
9974.011147	0.340452	0.341337	13020.332031
9974.012112	0.085005	0.341337	13102.361328
9974.013025	0.083994	0.341337	13179.047852
9974.013908	0.084053	0.341337	13253.266602
9974.014839	0.084016	0.341337	13331.485352
9974.015799	0.083950	0.341337	13412.077148
9974.016732	0.083990	0.341337	13490.440430
9974.017589	0.083961	0.341337	13562.395508
9974.018538	0.083873	0.341337	13641.991211
9974.019491	0.083958	0.341337	13722.002930
9975.291365	0.906932	0.086284	424.444336
9975.292296	1.319623	0.086284	1653.013062
9975.293177	1.326654	0.086284	2821.795410
9975.294104	1.298855	0.086284	4025.833984
9975.295066	1.268467	0.086284	5246.099121
9975.296002	1.239756	0.086284	6406.510742
9975.296869	1.213326	0.086284	7458.464844
9975.297838	1.186227	0.086284	8607.918945
9975.298794	1.159973	0.086284	9716.853516
9975.299693	1.135789	0.086284	10737.927734
9975.300565	1.117885	0.086284	11712.722656
9975.301517	1.078458	0.086284	12739.415039
9975.302442	0.286476	0.086284	13004.405273
9975.303311	0.085217	0.086284	13078.458984
9975.304287	0.083906	0.086284	13160.351562
9975.305238	0.083903	0.086284	13240.142578
9975.306130	0.083976	0.086284	13315.048828
9975.307036	0.083979	0.086284	13391.133789
9975.307965	0.083859	0.086284	13469.038086
9975.308914	0.083939	0.086284	13548.696289
9975.309796	0.083895	0.086284	13622.692383
9975.310704	0.083895	0.086284	13698.869141
9976.070600	0.863503	0.327947	377.351013
9976.071466	1.311669	0.327947	1513.256104
9976.072580	1.322314	0.327947	2986.314453
9976.073566	1.292435	0.327947	4260.655762
9976.074432	1.264768	0.327947	5355.944824
9976.075525	1.231263	0.327947	6701.715820
9976.076565	1.200659	0.327947	7950.401367
9976.077456	1.175292	0.327947	8997.585937
9976.078389	1.150243	0.327947	10070.762695
9976.079454	1.125183	0.327947	11269.083008
9976.080405	1.104185	0.327947	12319.162109
9976.081277	0.738966	0.327947	12963.541016
9976.082346	0.093820	0.327947	13063.833984
9976.083352	0.083958	0.327947	13148.294922
9976.084232	0.083994	0.327947	13222.209961
9976.085207	0.083998	0.327947	13304.107422
9976.086249	0.083932	0.327947	13391.564453
9976.087160	0.083928	0.327947	13468.023437
9976.088016	0.083979	0.327947	13539.910156
9976.089078	0.084045	0.327947	13629.166016
9976.090070	0.083892	0.327947	13712.386719
9976.090944	0.083939	0.327947	13785.750000
9977.357806	0.892031	0.080036	427.282959
9977.358768	1.321102	0.080036	1698.183350
9977.359702	1.324270	0.080036	2935.051514
9977.360571	1.297617	0.080036	4062.680908
9977.361545	1.267386	0.080036	5297.115234
9977.362503	1.237925	0.080036	6483.046875
9977.363404	1.210686	0.080036	7573.875000
9977.364275	1.185176	0.080036	8606.163086
9977.365248	1.158625	0.080036	9733.505859
9977.366186	1.133741	0.080036	10796.955078
9977.367082	1.116676	0.080036	11797.497070
9977.368072	1.005557	0.080036	12792.998047
9977.369128	0.164810	0.080036	12967.037109
9977.370099	0.083833	0.080036	13048.438477
9977.370966	0.083884	0.080036	13121.166016
9977.372028	0.083965	0.080036	13210.336914
9977.373070	0.083958	0.080036	13297.820312
9977.373957	0.083936	0.080036	13372.271484
9977.374864	0.084034	0.080036	13448.490234
9977.375944	0.083947	0.080036	13539.152344
9977.376888	0.083899	0.080036	13618.352539
9977.377759	0.084020	0.080036	13691.534180
9978.137039	0.872043	0.324168	378.466858
9978.137914	1.312581	0.324168	1526.974854
9978.138778	1.327251	0.324168	2673.719727
9978.139847	1.297031	0.324168	4060.246094
9978.140744	1.268500	0.324168	5198.090332
9978.141621	1.241521	0.324168	6286.904297
9978.142602	1.212594	0.324168	7476.458984
9978.143553	1.184670	0.324168	8603.080078
9978.144485	1.159178	0.324168	9683.434570
9978.145353	1.135646	0.324168	10669.174805
9978.146404	1.115288	0.324168	11841.342773
9978.147290	1.067157	0.324168	12786.843750
9978.148162	0.269388	0.324168	13021.750000
9978.149105	0.085012	0.324168	13101.916992
9978.150073	0.083833	0.324168	13183.067383
9978.150985	0.083840	0.324168	13259.529297
9978.151862	0.083884	0.324168	13333.095703
9978.152896	0.083954	0.324168	13419.904297
9978.153804	0.083892	0.324168	13496.078125
9978.154675	0.083892	0.324168	13569.147461
9978.155532	0.083881	0.324168	13641.033203
9978.156584	0.083914	0.324168	13729.310547
9979.425313	0.911257	0.071355	482.966339
9979.426346	1.327636	0.071355	1854.413818
9979.427242	1.322208	0.071355	3039.112305
9979.428108	1.294490	0.071355	4160.140625
9979.429174	1.261472	0.071355	5504.870117
9979.430119	1.232563	0.071355	6669.642578
9979.430996	1.206420	0.071355	7727.672852
9979.431955	1.179723	0.071355	8859.027344
9979.432972	1.151550	0.071355	10030.154297
9979.433865	1.129153	0.071355	11038.487305
9979.434733	1.111685	0.071355	12003.429687
9979.435806	0.816984	0.071355	12880.052734
9979.436736	0.114042	0.071355	12986.111328
9979.437607	0.083884	0.071355	13059.174805
9979.438560	0.083972	0.071355	13139.200195
9979.439613	0.083958	0.071355	13227.607422
9979.440493	0.083936	0.071355	13301.470703
9979.441357	0.083979	0.071355	13374.029297
9979.442397	0.083979	0.071355	13461.368164
9979.443347	0.083914	0.071355	13541.085937
9979.444223	0.083965	0.071355	13614.638672
9979.445147	0.084012	0.071355	13692.266602
9980.202423	0.845354	0.334118	355.894012
9980.203334	1.311149	0.334118	1550.350464
9980.204279	1.326039	0.334118	2803.457031
9980.205204	1.298643	0.334118	4004.701416
9980.206077	1.270657	0.334118	5113.984863
9980.207056	1.241312	0.334118	6329.229492
9980.208022	1.212100	0.334118	7500.117676
9980.208922	1.185850	0.334118	8567.382812
9980.209798	1.161314	0.334118	9584.693359
9980.210734	1.135983	0.334118	10647.973633
9980.211706	1.117119	0.334118	11733.813477
9980.212603	1.093169	0.334118	12714.385742
9980.213527	0.324368	0.334118	13014.101562
9980.214474	0.084924	0.334118	13094.524414
9980.215399	0.084009	0.334118	13172.232422
9980.216277	0.084009	0.334118	13245.992187
9980.217234	0.083888	0.334118	13326.272461
9980.218172	0.083950	0.334118	13405.017578
9980.219101	0.084060	0.334118	13483.109375
9980.219965	0.083961	0.334118	13555.651367
9980.220942	0.083994	0.334118	13637.713867
9980.221867	0.084038	0.334118	13715.449219
9981.490629	0.866012	0.073631	370.653137
9981.491514	1.313093	0.073631	1532.740723
9981.492381	1.327716	0.073631	2683.870605
9981.493391	1.299298	0.073631	3996.161621
9981.494328	1.269547	0.073631	5185.727539
9981.495209	1.242327	0.073631	6280.217285
9981.496116	1.215176	0.073631	7382.381836
9981.497090	1.187527	0.073631	8539.033203
9981.498021	1.161599	0.073631	9620.482422
9981.498890	1.137953	0.073631	10609.363281
9981.499818	1.118807	0.073631	11647.616211
9981.500776	1.093041	0.073631	12694.749023
9981.501675	0.343341	0.073631	13003.413086
9981.502833	0.084012	0.073631	13100.699219
9981.503776	0.083804	0.073631	13179.726562
9981.504697	0.083965	0.073631	13257.058594
9981.505577	0.083892	0.073631	13330.882812
9981.506570	0.083954	0.073631	13414.249023
9981.507489	0.083925	0.073631	13491.375977
9981.508387	0.083895	0.073631	13566.713867
9981.509246	0.083859	0.073631	13638.748047
9981.510217	0.083862	0.073631	13720.178711
9982.272026	0.925107	0.319330	473.654999
9982.272985	1.324017	0.319330	1743.387695
9982.273857	1.324482	0.319330	2898.336426
9982.274891	1.292472	0.319330	4234.752441
9982.275946	1.259531	0.319330	5563.557617
9982.276843	1.231853	0.319330	6668.529785
9982.277783	1.204116	0.319330	7800.398926
9982.278861	1.173387	0.319330	9065.310547
9982.279810	1.147899	0.319330	10154.666992
9982.280674	1.126959	0.319330	11128.359375
9982.281755	1.104075	0.319330	12321.864258
9982.282775	0.582645	0.319330	12916.162109
9982.283664	0.091901	0.319330	12997.861328
9982.284637	0.083914	0.319330	13079.508789
9982.285685	0.083917	0.319330	13167.454102
9982.286597	0.083979	0.319330	13244.042969
9982.287458	0.083969	0.319330	13316.339844
9982.288534	0.083939	0.319330	13406.658203
9982.289533	0.083895	0.319330	13490.469727
9982.290414	0.083895	0.319330	13564.381836
9982.291404	0.084027	0.319330	13647.568359
9982.292443	0.083990	0.319330	13734.833984
9983.556022	0.849155	0.073510	357.494354
9983.556993	1.316027	0.073510	1635.356201
9983.557924	1.325544	0.073510	2869.437988
9983.558813	1.298708	0.073510	4023.989746
9983.559690	1.270452	0.073510	5138.175781
9983.560660	1.240715	0.073510	6341.669922
9983.561619	1.212367	0.073510	7504.330078
9983.562507	1.186663	0.073510	8558.085937
9983.563443	1.161240	0.073510	9645.006836
9983.564407	1.135789	0.073510	10739.907227
9983.565283	1.118046	0.073510	11719.315430
9983.566185	1.091580	0.073510	12703.919922
9983.567135	0.292031	0.073510	12981.349609
9983.568097	0.084521	0.073510	13062.659180
9983.568986	0.083903	0.073510	13137.249023
9983.569895	0.083954	0.073510	13213.563477
9983.570853	0.083947	0.073510	13293.984375
9983.571776	0.083939	0.073510	13371.459961
9983.572642	0.083950	0.073510	13444.161133
9983.573607	0.083936	0.073510	13525.159180
9983.574528	0.083928	0.073510	13602.457031
9983.575417	0.083987	0.073510	13677.121094
9984.338471	0.946648	0.326126	495.096832
9984.339442	1.325002	0.326126	1781.674194
9984.340320	1.323647	0.326126	2943.836670
9984.341205	1.295332	0.326126	4090.205566
9984.342325	1.261604	0.326126	5503.202148
9984.343222	1.233886	0.326126	6609.997559
9984.344089	1.207815	0.326126	7657.172852
9984.345135	1.178375	0.326126	8889.753906
9984.346114	1.151374	0.326126	10016.949219
9984.346999	1.129340	0.326126	11016.415039
9984.347861	1.111091	0.326126	11974.175781
9984.348987	0.819210	0.326126	12896.606445
9984.349862	0.119659	0.326126	13001.308594
9984.350723	0.083793	0.326126	13073.454102
9984.351781	0.083969	0.326126	13162.292969
9984.352737	0.083877	0.326126	13242.479492
9984.353609	0.083925	0.326126	13315.662109
9984.354472	0.083961	0.326126	13388.121094
9984.355575	0.084020	0.326126	13480.794922
9984.356487	0.083961	0.326126	13557.367187
9984.357351	0.083906	0.326126	13629.862305
9984.358420	0.083932	0.326126	13719.585937
9985.621451	0.879503	0.075508	388.740417
9985.622380	1.317568	0.075508	1612.761475
9985.623247	1.326947	0.075508	2763.224609
9985.624223	1.298470	0.075508	4030.531738
9985.625187	1.268353	0.075508	5253.224121
9985.626080	1.240657	0.075508	6361.130859
9985.627017	1.212865	0.075508	7497.585449
9985.627975	1.185586	0.075508	8633.376953
9985.628846	1.160475	0.075508	9644.150391
9985.629727	1.136660	0.075508	10645.547852
9985.630698	1.117456	0.075508	11730.597656
9985.631663	1.073082	0.075508	12766.122070
9985.632560	0.280031	0.075508	13017.309570
9985.633478	0.085005	0.075508	13095.343750
9985.634436	0.083914	0.075508	13175.733398
9985.635360	0.083925	0.075508	13253.279297
9985.636221	0.083910	0.075508	13325.525391
9985.637188	0.083954	0.075508	13406.708984
9985.638124	0.083969	0.075508	13485.303711
9985.639037	0.083903	0.075508	13561.907227
9985.639893	0.083906	0.075508	13633.731445
9985.640855	0.083936	0.075508	13714.477539
9986.406847	0.849738	0.318484	361.988190
9986.407715	1.310134	0.318484	1499.184692
9986.408745	1.325207	0.318484	2864.148437
9986.409654	1.297650	0.318484	4043.712402
9986.410530	1.269679	0.318484	5155.951172
9986.411417	1.241481	0.318484	6257.144531
9986.412478	1.210481	0.318484	7541.464844
9986.413378	1.184539	0.318484	8607.549805
9986.414258	1.160416	0.318484	9628.715820
9986.415265	1.134595	0.318484	10771.252930
9986.416194	1.115874	0.318484	11807.900391
9986.417120	1.066608	0.318484	12795.579102
9986.417984	0.265778	0.318484	13025.210937
9986.419004	0.084075	0.318484	13110.966797
9986.419904	0.083888	0.318484	13186.465820
9986.420778	0.083972	0.318484	13259.857422
9986.421740	0.083994	0.318484	13340.660156
9986.422701	0.083972	0.318484	13421.357422
9986.423616	0.083983	0.318484	13498.202148
9986.424480	0.083990	0.318484	13570.769531
9986.425514	0.083917	0.318484	13657.540039
9986.426398	0.083965	0.318484	13731.764648
9987.688919	0.880298	0.076000	398.774933
9987.689798	1.314012	0.076000	1553.791870
9987.690789	1.325493	0.076000	2867.355469
9987.691839	1.293918	0.076000	4225.969727
9987.692755	1.264321	0.076000	5384.087891
9987.693621	1.237061	0.076000	6455.382324
9987.694711	1.205482	0.076000	7769.357910
9987.695680	1.177753	0.076000	8910.600586
9987.696567	1.153671	0.076000	9933.906250
9987.697595	1.128988	0.076000	11094.505859
9987.698645	1.106821	0.076000	12256.667969
9987.699533	0.797406	0.076000	12964.764648
9987.700415	0.115682	0.076000	13066.796875
9987.701506	0.084001	0.076000	13158.442383
9987.702458	0.083921	0.076000	13238.334961
9987.703318	0.083950	0.076000	13310.532227
9987.704379	0.084111	0.076000	13399.774414
9987.705421	0.083987	0.076000	13487.289062
9987.706295	0.084060	0.076000	13560.757812
9987.707225	0.084012	0.076000	13638.889648
9987.708283	0.083972	0.076000	13727.732422
9987.709227	0.084031	0.076000	13807.057617
9988.474297	0.846021	0.321796	355.328613
9988.475248	1.311570	0.321796	1602.631470
9988.476160	1.326024	0.321796	2811.965576
9988.477080	1.298591	0.321796	4006.669678
9988.477963	1.270444	0.321796	5128.471680
9988.478922	1.240521	0.321796	6318.131348
9988.479882	1.211982	0.321796	7481.634277
9988.480805	1.185553	0.321796	8575.899414
9988.481677	1.161039	0.321796	9588.325195
9988.482651	1.135822	0.321796	10694.615234
9988.483616	1.116962	0.321796	11772.483398
9988.484514	1.087306	0.321796	12748.883789
9988.485443	0.308386	0.321796	13035.375000
9988.486362	0.084683	0.321796	13113.198242
9988.487277	0.083950	0.321796	13190.012695
9988.488139	0.083943	0.321796	13262.371094
9988.489158	0.083899	0.321796	13347.864258
9988.490087	0.083947	0.321796	13425.850586
9988.490969	0.084038	0.321796	13499.972656
9988.491853	0.083925	0.321796	13574.162109
9988.492809	0.083954	0.321796	13654.421875
9988.493764	0.083910	0.321796	13734.555664
9989.756351	0.855949	0.076032	367.201904
9989.757213	1.310691	0.076032	1497.017456
9989.758347	1.323050	0.076032	2997.356689
9989.759253	1.294761	0.076032	4170.410156
9989.760136	1.267123	0.076032	5289.279297
9989.761162	1.235823	0.076032	6557.233398
9989.762163	1.205490	0.076032	7763.928223
9989.763058	1.180228	0.076032	8820.232422
9989.763924	1.155425	0.076032	9820.830078
9989.765017	1.129570	0.076032	11055.450195
9989.765912	1.110967	0.076032	12049.765625
9989.766781	0.974132	0.076032	12896.286133
9989.767785	0.151941	0.076032	13048.834961
9989.768782	0.083752	0.076032	13132.335937
9989.769685	0.083943	0.076032	13208.136719
9989.770547	0.084005	0.076032	13280.548828
9989.771648	0.084009	0.076032	13373.042969
9989.772561	0.083961	0.076032	13449.699219
9989.773438	0.084031	0.076032	13523.394531
9989.774415	0.084034	0.076032	13605.496094
9989.775417	0.083829	0.076032	13689.493164
9989.776309	0.084053	0.076032	13764.467773
9990.540748	0.861815	0.316329	373.165955
9990.541620	1.311910	0.316329	1517.151855
9990.542608	1.325823	0.316329	2827.064697
9990.543539	1.297811	0.316329	4035.327148
9990.544420	1.269694	0.316329	5153.927246
9990.545331	1.242217	0.316329	6285.586914
9990.546278	1.213202	0.316329	7434.489258
9990.547228	1.185839	0.316329	8561.036133
9990.548108	1.161537	0.316329	9583.188477
9990.549018	1.136982	0.316329	10617.842773
9990.549969	1.117859	0.316329	11680.926758
9990.550905	1.092583	0.316329	12703.583984
9990.551787	0.344136	0.316329	13007.111328
9990.552750	0.085302	0.316329	13089.256836
9990.553702	0.083925	0.316329	13169.153320
9990.554594	0.083892	0.316329	13243.984375
9990.555476	0.083877	0.316329	13317.963867
9990.556429	0.083976	0.316329	13397.993164
9990.557385	0.083976	0.316329	13478.274414
9990.558261	0.083976	0.316329	13551.836914
9990.559173	0.083969	0.316329	13628.416016
9990.560118	0.083851	0.316329	13707.655273
9991.822786	0.862284	0.076661	373.368958
9991.823663	1.312002	0.076661	1523.994629
9991.824664	1.325896	0.076661	2851.216553
9991.825604	1.297493	0.076661	4070.859619
9991.826531	1.268291	0.076661	5246.565430
9991.827400	1.240635	0.076661	6324.677246
9991.828450	1.210067	0.076661	7595.248047
9991.829336	1.184520	0.076661	8644.733398
9991.830205	1.160486	0.076661	9653.195312
9991.831174	1.135243	0.076661	10753.246094
9991.832128	1.116046	0.076661	11817.954102
9991.833048	1.063660	0.076661	12796.521484
9991.833932	0.262650	0.076661	13028.704102
9991.834956	0.084280	0.076661	13115.006836
9991.835853	0.083859	0.076661	13190.228516
9991.836725	0.083928	0.076661	13263.414062
9991.837643	0.084067	0.076661	13340.587891
9991.838650	0.084016	0.076661	13425.192383
9991.839562	0.083943	0.076661	13501.748047
9991.840432	0.083950	0.076661	13574.785156
9991.841456	0.083947	0.076661	13660.746094
9991.842345	0.084027	0.076661	13735.446289
9992.608194	0.855886	0.316055	372.310516
9992.609060	1.310925	0.316055	1507.571777
9992.610039	1.326335	0.316055	2806.054199
9992.610967	1.298613	0.316055	4011.167236
9992.611847	1.270437	0.316055	5129.151855
9992.612782	1.242187	0.316055	6290.597168
9992.613733	1.213246	0.316055	7444.394043
9992.614657	1.185956	0.316055	8540.216797
9992.615551	1.161504	0.316055	9578.601562
9992.616463	1.136982	0.316055	10615.529297
9992.617424	1.117991	0.316055	11689.917969
9992.618321	1.096058	0.316055	12673.082031
9992.619244	0.354514	0.316055	13000.298828
9992.620205	0.085313	0.316055	13082.284180
9992.621131	0.083928	0.316055	13160.001953
9992.621993	0.083844	0.316055	13232.275391
9992.622962	0.083899	0.316055	13313.573242
9992.623879	0.083936	0.316055	13390.541992
9992.624787	0.083972	0.316055	13466.789062
9992.625663	0.083972	0.316055	13540.348633
9992.626636	0.083932	0.316055	13622.014648
9992.627585	0.083943	0.316055	13701.676758
9992.628475	0.084012	0.316055	13776.448242
9993.889241	0.880734	0.077527	382.238373
9993.890174	1.317316	0.077527	1611.293945
9993.891051	1.327346	0.077527	2775.376465
9993.891983	1.299573	0.077527	3986.578125
9993.892942	1.269510	0.077527	5204.038574
9993.893863	1.240851	0.077527	6346.862305
9993.894730	1.214176	0.077527	7399.552734
9993.895686	1.186952	0.077527	8534.279297
9993.896648	1.160533	0.077527	9650.712891
9993.897550	1.136572	0.077527	10675.901367
9993.898466	1.118628	0.077527	11700.564453
9993.899387	1.090188	0.077527	12704.627930
9993.900362	0.282766	0.077527	12980.325195
9993.901252	0.084968	0.077527	13055.947266
9993.902185	0.083811	0.077527	13134.142578
9993.903138	0.083892	0.077527	13214.090820
9993.904024	0.083917	0.077527	13288.441406
9993.904938	0.083958	0.077527	13365.178711
9993.905877	0.083958	0.077527	13444.014648
9993.906816	0.083965	0.077527	13522.857422
9993.907708	0.083917	0.077527	13597.711914
9993.908618	0.083994	0.077527	13674.146484
9994.674686	0.904742	0.312905	445.133270
9994.675568	1.317799	0.312905	1607.432129
9994.676493	1.325383	0.312905	2833.411621
9994.677558	1.293472	0.312905	4210.958984
9994.678508	1.263435	0.312905	5411.222656
9994.679372	1.236716	0.312905	6479.745605
9994.680422	1.205772	0.312905	7745.805664
9994.681447	1.176610	0.312905	8951.831055
9994.682330	1.152363	0.312905	9969.368164
9994.683297	1.129303	0.312905	11061.404297
9994.684360	1.106294	0.312905	12237.394531
9994.685287	0.769138	0.312905	12950.385742
9994.686148	0.110742	0.312905	13045.734375
9994.687198	0.083862	0.312905	13133.790039
9994.688207	0.083921	0.312905	13218.465820
9994.689097	0.084001	0.312905	13293.227539
9994.690074	0.083990	0.312905	13375.286133
9994.691127	0.083983	0.312905	13463.720703
9994.692042	0.083906	0.312905	13540.495117
9994.692902	0.083987	0.312905	13612.723633
9994.693975	0.083954	0.312905	13702.805664
9994.694960	0.083958	0.312905	13785.503906
9995.952617	0.890478	0.084681	417.634399
9995.953547	1.319209	0.084681	1644.498779
9995.954426	1.326639	0.084681	2810.614746
9995.955350	1.299111	0.084681	4010.993652
9995.956317	1.268884	0.084681	5238.004883
9995.957241	1.240239	0.084681	6383.985840
9995.958104	1.213978	0.084681	7431.648926
9995.959031	1.186359	0.084681	8531.403320
9995.959999	1.160270	0.084681	9654.544922
9995.960900	1.136305	0.084681	10678.355469
9995.961967	1.114497	0.084681	11867.523437
9995.962934	0.990095	0.084681	12824.945312
9995.963868	0.180157	0.084681	12993.211914
9995.964736	0.084075	0.084681	13066.188477
9995.965713	0.083914	0.084681	13148.171875
9995.966666	0.083939	0.084681	13228.166016
9995.967558	0.083954	0.084681	13303.052734
9995.968469	0.083976	0.084681	13379.554687
9995.969428	0.084027	0.084681	13460.136719
9995.970350	0.084016	0.084681	13537.599609
9995.971210	0.083983	0.084681	13609.825195
9995.972162	0.083972	0.084681	13689.766602
9996.742074	0.847174	0.307298	356.660309
9996.743021	1.311376	0.307298	1598.533081
9996.744095	1.321695	0.307298	3018.033936
9996.745034	1.292776	0.307298	4231.950195
9996.745901	1.264783	0.307298	5328.516602
9996.746972	1.232571	0.307298	6648.600098
9996.747981	1.202461	0.307298	7861.883301
9996.748877	1.177119	0.307298	8916.582031
9996.749849	1.151191	0.307298	10035.540039
9996.750891	1.126388	0.307298	11209.236328
9996.751810	1.106305	0.307298	12225.930664
9996.752680	0.803855	0.307298	12925.284180
9996.753765	0.099152	0.307298	13032.863281
9996.754758	0.083793	0.307298	13116.069336
9996.755635	0.083943	0.307298	13189.687500
9996.756638	0.084012	0.307298	13273.952148
9996.757691	0.083972	0.307298	13362.375000
9996.758578	0.083979	0.307298	13436.865234
9996.759439	0.083954	0.307298	13509.149414
9996.760535	0.084012	0.307298	13601.227539
9996.761515	0.083932	0.307298	13683.480469
9996.762379	0.083855	0.307298	13755.931641
9998.020053	0.888395	0.077925	395.335663
9998.020982	1.317726	0.077925	1619.502930
9998.021854	1.326566	0.077925	2776.268555
9998.022842	1.297852	0.077925	4058.545898
9998.023800	1.267928	0.077925	5273.221680
9998.024671	1.240353	0.077925	6353.568848
9998.025594	1.212817	0.077925	7472.999023
9998.026548	1.185641	0.077925	8604.100586
9998.027483	1.159629	0.077925	9688.353516
9998.028361	1.136276	0.077925	10686.003906
9998.029296	1.117588	0.077925	11730.948242
9998.030261	1.079766	0.077925	12772.921875
9998.031155	0.285253	0.077925	13027.937500
9998.032260	0.083855	0.077925	13120.597656
9998.033199	0.083892	0.077925	13199.372070
9998.034131	0.083928	0.077925	13277.592773
9998.034992	0.083914	0.077925	13349.842773
9998.035960	0.083925	0.077925	13431.082031
9998.036911	0.083914	0.077925	13510.883789
9998.037781	0.083998	0.077925	13583.961914
9998.038698	0.083910	0.077925	13660.907227
9998.039633	0.083866	0.077925	13739.322266
9998.809527	0.857688	0.306303	361.944305
9998.810621	1.323860	0.306303	1810.247070
9998.811566	1.321362	0.306303	3058.934570
9998.812451	1.293977	0.306303	4204.104492
9998.813442	1.263241	0.306303	5455.976562
9998.814464	1.231318	0.306303	6714.383789
9998.815357	1.204680	0.306303	7790.163086
9998.816227	1.179203	0.306303	8816.069336
9998.817318	1.150437	0.306303	10071.196289
9998.818240	1.127999	0.306303	11111.211914
9998.819117	1.110029	0.306303	12084.708008
9998.820117	0.825740	0.306303	12910.447266
9998.821116	0.107703	0.306303	13018.041992
9998.821986	0.083859	0.306303	13090.999023
9998.822861	0.084031	0.306303	13164.526367
9998.823835	0.083994	0.306303	13246.336914
9998.824790	0.083950	0.306303	13326.509766
9998.825660	0.083954	0.306303	13399.549805
9998.826606	0.083950	0.306303	13478.966797
9998.827647	0.083947	0.306303	13566.355469
9998.828544	0.083936	0.306303	13641.645508
9998.829420	0.083943	0.306303	13715.179687
10000.087537	0.896536	0.080757	429.440582
10000.088420	1.316488	0.080757	1591.899536
10000.089373	1.325764	0.080757	2855.352539
10000.090431	1.293827	0.080757	4224.221191
10000.091367	1.264299	0.080757	5407.605469
10000.092229	1.237145	0.080757	6474.024414
10000.093296	1.205969	0.080757	7760.793457
10000.094313	1.177137	0.080757	8957.942383
10000.095189	1.152828	0.080757	9967.820312
10000.096171	1.129069	0.080757	11076.565430
10000.097245	1.106298	0.080757	12264.729492
10000.098161	0.756134	0.080757	12957.348633
10000.099026	0.108618	0.080757	13051.303711
10000.100123	0.083958	0.080757	13143.405273
10000.101118	0.084023	0.080757	13227.008789
10000.102011	0.084038	0.080757	13302.054687
10000.103002	0.084064	0.080757	13385.362305
10000.104043	0.084093	0.080757	13472.903320
10000.104939	0.083979	0.080757	13548.149414
10000.105810	0.084045	0.080757	13621.352539
10000.106908	0.084020	0.080757	13713.606445
10000.107875	0.083932	0.080757	13794.768555
10000.874948	0.851429	0.303435	366.114655
10000.875818	1.310936	0.303435	1506.629272
10000.876750	1.326830	0.303435	2743.234619
10000.877742	1.297654	0.303435	4030.507324
10000.878671	1.268207	0.303435	5208.671387
10000.879548	1.241169	0.303435	6297.176758
10000.880569	1.211437	0.303435	7534.053711
10000.881479	1.184209	0.303435	8611.683594
10000.882405	1.159065	0.303435	9684.977539
10000.883270	1.135027	0.303435	10666.775391
10000.884342	1.114662	0.303435	11861.693359
10000.885222	1.057137	0.303435	12791.974609
10000.886103	0.253700	0.303435	13015.484375
10000.887101	0.084668	0.303435	13099.983398
10000.888040	0.083932	0.303435	13178.795898
10000.888966	0.083958	0.303435	13256.541016
10000.889832	0.083994	0.303435	13329.280273
10000.890869	0.083954	0.303435	13416.340820
10000.891751	0.083895	0.303435	13490.336914
10000.892626	0.084023	0.303435	13563.857422
10000.893611	0.084009	0.303435	13646.606445
10000.894568	0.083954	0.303435	13726.950195
10002.152982	0.921075	0.083738	461.458801
10002.154004	1.326090	0.083738	1816.722900
10002.154902	1.322772	0.083738	3004.572266
10002.155865	1.293505	0.083738	4250.217285
10002.156933	1.259374	0.083738	5595.228516
10002.157862	1.230934	0.083738	6738.766113
10002.158727	1.204764	0.083738	7780.887207
10002.159804	1.174948	0.083738	9046.305664
10002.160815	1.147178	0.083738	10206.102539
10002.161698	1.126443	0.083738	11200.751953
10002.162686	1.105646	0.083738	12293.129883
10002.163739	0.595455	0.083738	12920.144531
10002.164640	0.091564	0.083738	13002.643555
10002.165498	0.083873	0.083738	13074.606445
10002.166571	0.084020	0.083738	13164.759766
10002.167564	0.083954	0.083738	13248.125977
10002.168459	0.083939	0.083738	13323.251953
10002.169448	0.084045	0.083738	13406.373047
10002.170490	0.084016	0.083738	13493.917969
10002.171382	0.083921	0.083738	13568.775391
10002.172243	0.084042	0.083738	13641.135742
10002.173357	0.083979	0.083738	13734.688477
10002.942406	0.860167	0.302637	369.011749
10002.943276	1.311489	0.302637	1510.007324
10002.944257	1.326244	0.302637	2811.052734
10002.945174	1.297954	0.302637	4001.276611
10002.946106	1.268848	0.302637	5183.842773
10002.946971	1.241422	0.302637	6257.672852
10002.947949	1.212825	0.302637	7443.815430
10002.948911	1.185406	0.302637	8584.176758
10002.949793	1.160826	0.302637	9608.025391
10002.950710	1.136660	0.302637	10650.342773
10002.951674	1.117386	0.302637	11727.502930
10002.952610	1.082893	0.302637	12741.090820
10002.953498	0.303896	0.302637	13010.951172
10002.954432	0.084749	0.302637	13090.106445
10002.955385	0.083895	0.302637	13170.058594
10002.956320	0.083969	0.302637	13248.569336
10002.957181	0.083954	0.302637	13320.853516
10002.958146	0.083925	0.302637	13401.840820
10002.959099	0.083954	0.302637	13481.848633
10002.959988	0.084020	0.302637	13556.541992
10002.960915	0.083965	0.302637	13634.376953
10002.961831	0.083958	0.302637	13711.282227
10004.219319	0.848602	0.089350	356.412964
10004.220377	1.322410	0.089350	1755.522339
10004.221280	1.324098	0.089350	2951.182617
10004.222157	1.297225	0.089350	4088.849121
10004.223060	1.267899	0.089350	5233.762207
10004.224077	1.236866	0.089350	6491.655273
10004.225010	1.209474	0.089350	7620.094238
10004.225886	1.184172	0.089350	8657.429687
10004.226907	1.157003	0.089350	9838.729492
10004.227795	1.132599	0.089350	10844.477539
10004.228713	1.115171	0.089350	11868.204102
10004.229591	1.011511	0.089350	12756.310547
10004.230633	0.175957	0.089350	12939.658203
10004.231524	0.083979	0.089350	13014.484375
10004.232401	0.083895	0.089350	13088.060547
10004.233388	0.084089	0.089350	13171.056641
10004.234339	0.083961	0.089350	13250.903320
10004.235257	0.083958	0.089350	13327.976562
10004.236116	0.083979	0.089350	13400.115234
10004.237150	0.083979	0.089350	13486.950195
10004.238030	0.083950	0.089350	13560.826172
10004.238893	0.084016	0.089350	13633.332031
10005.008870	0.879987	0.299898	410.953735
10005.009767	1.316569	0.299898	1591.915771
10005.010634	1.326918	0.299898	2742.353516
10005.011621	1.298511	0.299898	4023.983398
10005.012564	1.268503	0.299898	5220.182129
10005.013460	1.240587	0.299898	6331.748047
10005.014344	1.213781	0.299898	7404.729980
10005.015283	1.186333	0.299898	8518.697266
10005.016240	1.160013	0.299898	9628.830078
10005.017134	1.136437	0.299898	10644.804687
10005.018058	1.118035	0.299898	11677.869141
10005.019023	1.078081	0.299898	12718.216797
10005.019956	0.284033	0.299898	12983.219727
10005.020832	0.085045	0.299898	13057.719727
10005.021785	0.083892	0.299898	13137.667969
10005.022712	0.083914	0.299898	13215.456055
10005.023589	0.083881	0.299898	13289.019531
10005.024673	0.083928	0.299898	13379.998047
10005.025621	0.083917	0.299898	13459.551758
10005.026552	0.083961	0.299898	13537.719727
10005.027411	0.084012	0.299898	13609.886719
10005.028352	0.083950	0.299898	13688.883789
10006.285750	0.844541	0.092065	355.551758
10006.286691	1.311156	0.092065	1589.349609
10006.287608	1.326050	0.092065	2805.337402
10006.288533	1.299089	0.092065	4006.995117
10006.289397	1.270474	0.092065	5104.684570
10006.290443	1.239320	0.092065	6401.013184
10006.291317	1.212634	0.092065	7460.855469
10006.292229	1.186545	0.092065	8542.985352
10006.293106	1.161749	0.092065	9561.839844
10006.294105	1.135939	0.092065	10696.642578
10006.295041	1.117474	0.092065	11742.598633
10006.295922	1.083428	0.092065	12697.098633
10006.296963	0.237546	0.092065	12944.384766
10006.297857	0.084415	0.092065	13019.851562
10006.298779	0.083954	0.092065	13097.256836
10006.299647	0.084016	0.092065	13170.182617
10006.300637	0.083947	0.092065	13253.290039
10006.301559	0.083925	0.092065	13330.668945
10006.302423	0.083998	0.092065	13403.243164
10006.303503	0.084005	0.092065	13493.968750
10006.304379	0.083990	0.092065	13567.543945
10006.305296	0.084034	0.092065	13644.603516
10007.075337	0.889885	0.302323	447.612274
10007.076410	1.326533	0.302323	1870.982422
10007.077357	1.319663	0.302323	3120.703369
10007.078222	1.291963	0.302323	4238.250977
10007.079305	1.258176	0.302323	5600.855957
10007.080324	1.227162	0.302323	6851.333984
10007.081215	1.200941	0.302323	7921.372559
10007.082204	1.173420	0.302323	9081.885742
10007.083262	1.144669	0.302323	10292.945312
10007.084164	1.124275	0.302323	11307.041016
10007.085029	1.104415	0.302323	12262.360352
10007.086146	0.542626	0.302323	12868.473633
10007.087114	0.087675	0.302323	12953.342773
10007.087981	0.083851	0.302323	13026.041992
10007.088995	0.083994	0.302323	13111.211914
10007.090056	0.083936	0.302323	13200.267578
10007.090936	0.083969	0.302323	13274.160156
10007.091811	0.083928	0.302323	13347.597656
10007.092896	0.083932	0.302323	13438.664062
10007.093852	0.083954	0.302323	13518.923828
10007.094722	0.083961	0.302323	13591.969727
10007.095733	0.084100	0.302323	13676.995117
10008.355291	0.887604	0.092915	399.421692
10008.356164	1.313730	0.092915	1546.308350
10008.357108	1.326295	0.092915	2798.331055
10008.358074	1.297804	0.092915	4052.009766
10008.359001	1.268569	0.092915	5227.973633
10008.359868	1.241151	0.092915	6304.051758
10008.360823	1.212913	0.092915	7462.383301
10008.361781	1.185505	0.092915	8598.097656
10008.362683	1.160438	0.092915	9644.812500
10008.363604	1.136631	0.092915	10691.649414
10008.364526	1.117632	0.092915	11722.105469
10008.365486	1.080923	0.092915	12759.791016
10008.366386	0.283081	0.092915	13014.564453
10008.367302	0.085071	0.092915	13092.489258
10008.368267	0.083895	0.092915	13173.448242
10008.369191	0.083954	0.092915	13251.021484
10008.370057	0.083990	0.092915	13323.756836
10008.371005	0.084005	0.092915	13403.393555
10008.371933	0.083954	0.092915	13481.302734
10008.372855	0.083998	0.092915	13558.749023
10008.373724	0.084020	0.092915	13631.762695
10008.374711	0.083958	0.092915	13714.628906
10009.143754	0.860749	0.298448	376.147522
10009.144619	1.311050	0.298448	1510.205566
10009.145687	1.323545	0.298448	2923.751465
10009.146709	1.292574	0.298448	4244.762695
10009.147600	1.264069	0.298448	5371.047852
10009.148575	1.234750	0.298448	6574.928711
10009.149622	1.203673	0.298448	7835.174316
10009.150547	1.177072	0.298448	8923.965820
10009.151409	1.152828	0.298448	9917.704102
10009.152489	1.127391	0.298448	11135.287109
10009.153496	1.105686	0.298448	12248.712891
10009.154381	0.798534	0.298448	12955.415039
10009.155356	0.111511	0.298448	13064.138672
10009.156428	0.083884	0.298448	13154.062500
10009.157309	0.083888	0.298448	13227.967773
10009.158177	0.083987	0.298448	13300.868164
10009.159267	0.083936	0.298448	13392.357422
10009.160228	0.083837	0.298448	13472.924805
10009.161113	0.083965	0.298448	13547.233398
10009.162116	0.083969	0.298448	13631.454102
10009.163172	0.083936	0.298448	13720.089844
10009.164060	0.083965	0.298448	13794.650391
10010.421748	0.911125	0.099013	425.495605
10010.422676	1.318978	0.099013	1649.507446
10010.423544	1.326222	0.099013	2800.667969
10010.424516	1.297716	0.099013	4062.047852
10010.425474	1.267800	0.099013	5276.600586
10010.426348	1.240188	0.099013	6360.524902
10010.427263	1.213000	0.099013	7470.420410
10010.428220	1.185476	0.099013	8604.920898
10010.429146	1.159893	0.099013	9678.981445
10010.430029	1.136327	0.099013	10682.358398
10010.430964	1.117606	0.099013	11727.320312
10010.431911	1.079326	0.099013	12749.442383
10010.432840	0.274849	0.099013	13004.776367
10010.433704	0.085093	0.099013	13078.296875
10010.434683	0.083833	0.099013	13160.369141
10010.435626	0.083965	0.099013	13239.547852
10010.436501	0.083961	0.099013	13313.013672
10010.437391	0.083958	0.099013	13387.736328
10010.438339	0.083943	0.099013	13467.314453
10010.439286	0.083990	0.099013	13546.853516
10010.440178	0.083950	0.099013	13621.737305
10010.441092	0.084009	0.099013	13698.521484
10011.211191	0.845808	0.292727	356.931000
10011.212169	1.313009	0.292727	1641.053833
10011.213196	1.322194	0.292727	2998.946777
10011.214088	1.294633	0.292727	4153.758789
10011.214957	1.266365	0.292727	5254.229492
10011.216041	1.234123	0.292727	6592.019531
10011.216970	1.206138	0.292727	7712.521484
10011.217846	1.181279	0.292727	8747.322266
10011.218839	1.154751	0.292727	9893.990234
10011.219857	1.129032	0.292727	11043.344727
10011.220742	1.111018	0.292727	12026.595703
10011.221603	0.954935	0.292727	12848.794922
10011.222668	0.135516	0.292727	12993.120117
10011.223594	0.083881	0.292727	13070.793945
10011.224471	0.083917	0.292727	13144.389648
10011.225430	0.084064	0.292727	13225.006836
10011.226448	0.084009	0.292727	13310.527344
10011.227344	0.083943	0.292727	13385.740234
10011.228212	0.083895	0.292727	13458.561523
10011.229278	0.084049	0.292727	13548.158203
10011.230228	0.083892	0.292727	13627.855469
10011.231104	0.083965	0.292727	13701.408203
10012.489250	0.928414	0.102566	477.204956
10012.490175	1.322314	0.102566	1700.345703
10012.491041	1.325043	0.102566	2847.832764
10012.492133	1.292494	0.102566	4259.236328
10012.493142	1.260623	0.102566	5531.204590
10012.494020	1.233669	0.102566	6614.366211
10012.495029	1.204314	0.102566	7829.519043
10012.496085	1.174255	0.102566	9069.533203
10012.496988	1.149357	0.102566	10107.402344
10012.497857	1.127498	0.102566	11087.197266
10012.498961	1.104294	0.102566	12306.337891
10012.499939	0.649149	0.102566	12941.206055
10012.500814	0.096200	0.102566	13025.380859
10012.501856	0.083881	0.102566	13112.784180
10012.502885	0.083936	0.102566	13199.154297
10012.503777	0.083917	0.102566	13274.008789
10012.504687	0.083943	0.102566	13350.396484
10012.505769	0.083917	0.102566	13441.195312
10012.506718	0.083829	0.102566	13520.749023
10012.507586	0.083950	0.102566	13593.618164
10012.508632	0.083972	0.102566	13681.453125
10012.509651	0.084005	0.102566	13767.054687
10013.276622	0.860394	0.298879	378.573486
10013.277492	1.311654	0.298879	1519.712524
10013.278357	1.328258	0.298879	2668.655762
10013.279423	1.297892	0.298879	4052.208496
10013.280302	1.269624	0.298879	5168.208008
10013.281175	1.242382	0.298879	6252.807129
10013.282043	1.215132	0.298879	7307.541504
10013.283107	1.185762	0.298879	8569.191406
10013.283991	1.160889	0.298879	9595.416992
10013.284873	1.137451	0.298879	10598.648437
10013.285870	1.117643	0.298879	11712.938477
10013.286807	1.079355	0.298879	12724.294922
10013.287730	0.286798	0.298879	12989.009766
10013.288594	0.085177	0.298879	13062.602539
10013.289642	0.083903	0.298879	13150.532227
10013.290525	0.083947	0.298879	13224.657227
10013.291399	0.083998	0.298879	13298.071289
10013.292398	0.084042	0.298879	13382.029297
10013.293353	0.083950	0.298879	13462.202148
10013.294271	0.084001	0.298879	13539.315430
10013.295134	0.083958	0.298879	13611.770508
10013.296165	0.083976	0.298879	13698.349609
10014.557633	0.869304	0.102635	372.062225
10014.558711	1.323574	0.102635	1798.875244
10014.559689	1.320981	0.102635	3090.794922
10014.560571	1.293505	0.102635	4231.666016
10014.561604	1.261311	0.102635	5534.600586
10014.562651	1.229751	0.102635	6822.149902
10014.563535	1.202677	0.102635	7885.316406
10014.564449	1.176650	0.102635	8960.775391
10014.565541	1.147456	0.102635	10213.796875
10014.566494	1.125363	0.102635	11286.267578
10014.567359	1.106624	0.102635	12243.497070
10014.568406	0.652379	0.102635	12926.538086
10014.569442	0.090201	0.102635	13019.986328
10014.570318	0.083855	0.102635	13093.443359
10014.571269	0.084067	0.102635	13173.391602
10014.572312	0.083958	0.102635	13260.958984
10014.573239	0.083925	0.102635	13338.756836
10014.574106	0.084012	0.102635	13411.595703
10014.575147	0.084001	0.102635	13499.041016
10014.576167	0.083892	0.102635	13584.610352
10014.577053	0.083976	0.102635	13659.012695
10014.578006	0.083987	0.102635	13739.051758
10015.346155	0.898865	0.285706	413.477783
10015.347038	1.315378	0.285706	1574.956909
10015.347913	1.327379	0.285706	2736.413574
10015.348901	1.298632	0.285706	4019.461426
10015.349852	1.267742	0.285706	5225.083984
10015.350789	1.239056	0.285706	6386.080078
10015.351666	1.212400	0.285706	7449.354492
10015.352697	1.183422	0.285706	8669.461914
10015.353586	1.158798	0.285706	9699.632812
10015.354460	1.135342	0.285706	10691.921875
10015.355425	1.116497	0.285706	11769.340820
10015.356400	1.053494	0.285706	12796.497070
10015.357311	0.232709	0.285706	13008.495117
10015.358196	0.084467	0.285706	13083.248047
10015.359222	0.083895	0.285706	13169.324219
10015.360119	0.083899	0.285706	13244.582031
10015.360993	0.083917	0.285706	13317.925781
10015.361871	0.084001	0.285706	13391.678711
10015.362922	0.083969	0.285706	13479.929687
10015.363814	0.083903	0.285706	13554.770508
10015.364694	0.083939	0.285706	13628.636719
10015.365697	0.084031	0.285706	13712.919922
10016.624058	0.863082	0.101717	366.809937
10016.625164	1.324731	0.101717	1831.962891
10016.626157	1.319821	0.101717	3142.544678
10016.627054	1.292007	0.101717	4301.474609
10016.628057	1.260535	0.101717	5565.791016
10016.629111	1.228696	0.101717	6860.836914
10016.630003	1.201780	0.101717	7932.824219
10016.630892	1.175742	0.101717	8978.058594
10016.631997	1.146932	0.101717	10245.418945
10016.632949	1.124916	0.101717	11316.338867
10016.633816	1.105902	0.101717	12275.156250
10016.634867	0.618409	0.101717	12925.104492
10016.635900	0.089052	0.101717	13017.094727
10016.636782	0.083862	0.101717	13091.061523
10016.637730	0.084023	0.101717	13170.715820
10016.638779	0.084067	0.101717	13258.902344
10016.639708	0.083979	0.101717	13336.918945
10016.640565	0.084020	0.101717	13408.923828
10016.641624	0.084111	0.101717	13497.998047
10016.642629	0.084016	0.101717	13582.434570
10016.643500	0.084023	0.101717	13655.619141
10016.644459	0.083990	0.101717	13736.166016
10017.413567	0.853872	0.280405	363.749512
10017.414440	1.310684	0.280405	1507.976318
10017.415306	1.327852	0.280405	2657.895752
10017.416309	1.299683	0.280405	3961.477539
10017.417236	1.270001	0.280405	5138.768555
10017.418113	1.242715	0.280405	6228.629395
10017.419144	1.212224	0.280405	7478.432617
10017.420037	1.186231	0.280405	8537.736328
10017.420954	1.161094	0.280405	9602.458984
10017.421823	1.137524	0.280405	10590.967773
10017.422831	1.117734	0.280405	11717.643555
10017.423759	1.090510	0.280405	12729.636719
10017.424631	0.329359	0.280405	13016.837891
10017.425495	0.085906	0.280405	13091.060547
10017.426499	0.083936	0.280405	13175.332031
10017.427427	0.084012	0.280405	13253.295898
10017.428303	0.083972	0.280405	13326.855469
10017.429321	0.083873	0.280405	13412.238281
10017.430216	0.083943	0.280405	13487.367187
10017.431134	0.083939	0.280405	13564.423828
10017.432000	0.083976	0.280405	13637.146484
10017.432988	0.083958	0.280405	13720.096680
10018.691606	0.927993	0.096649	473.276520
10018.692598	1.325706	0.096649	1788.376465
10018.693491	1.323450	0.096649	2970.217041
10018.694492	1.292633	0.096649	4264.142578
10018.695540	1.260011	0.096649	5584.633789
10018.696431	1.232102	0.096649	6682.436523
10018.697313	1.205013	0.096649	7745.258301
10018.698423	1.174603	0.096649	9049.068359
10018.699387	1.148430	0.096649	10156.155273
10018.700259	1.127479	0.096649	11139.317383
10018.701303	1.105433	0.096649	12293.389648
10018.702346	0.599473	0.096649	12918.639648
10018.703239	0.092629	0.096649	13001.357422
10018.704193	0.083917	0.096649	13081.414062
10018.705235	0.083983	0.096649	13168.924805
10018.706164	0.083990	0.096649	13246.952148
10018.707027	0.083928	0.096649	13319.381836
10018.708091	0.084108	0.096649	13408.872070
10018.709102	0.084001	0.096649	13493.797852
10018.709982	0.084012	0.096649	13567.728516
10018.710959	0.084086	0.096649	13649.879883
10018.712003	0.084049	0.096649	13737.626953
10019.481020	0.847456	0.283531	360.168854
10019.481908	1.310424	0.283531	1523.824951
10019.482897	1.324786	0.283531	2834.038574
10019.483834	1.296870	0.283531	4049.205811
10019.484722	1.268950	0.283531	5176.033203
10019.485665	1.240210	0.283531	6345.551270
10019.486622	1.211693	0.283531	7505.141602
10019.487558	1.184634	0.283531	8613.958984
10019.488443	1.159951	0.283531	9640.515625
10019.489408	1.134606	0.283531	10735.410156
10019.490338	1.116127	0.283531	11773.408203
10019.491268	1.076199	0.283531	12774.273437
10019.492137	0.284894	0.283531	13021.845703
10019.493108	0.084558	0.283531	13103.951172
10019.494018	0.083873	0.283531	13180.275391
10019.494895	0.083917	0.283531	13253.871094
10019.495882	0.083873	0.283531	13336.654297
10019.496803	0.083892	0.283531	13413.917969
10019.497722	0.083903	0.283531	13491.024414
10019.498587	0.083906	0.283531	13563.603516
10019.499547	0.083859	0.283531	13644.107422
10019.500498	0.083892	0.283531	13723.888672
10020.758999	0.880276	0.094357	393.483307
10020.759876	1.313481	0.094357	1545.406494
10020.760740	1.327137	0.094357	2692.053223
10020.761851	1.295936	0.094357	4131.838379
10020.762765	1.266544	0.094357	5289.459961
10020.763640	1.239679	0.094357	6374.179199
10020.764624	1.210503	0.094357	7565.313965
10020.765637	1.181378	0.094357	8762.049805
10020.766530	1.156901	0.094357	9795.162109
10020.767390	1.133650	0.094357	10770.101562
10020.768478	1.112747	0.094357	11980.769531
10020.769388	0.983430	0.094357	12875.691406
10020.770256	0.184160	0.094357	13035.541992
10020.771224	0.084294	0.094357	13117.138672
10020.772243	0.083921	0.094357	13202.654297
10020.773123	0.083903	0.094357	13276.488281
10020.773986	0.083928	0.094357	13348.917969
10020.775049	0.083936	0.094357	13438.141602
10020.775978	0.083914	0.094357	13516.097656
10020.776857	0.083987	0.094357	13589.921875
10020.777819	0.083976	0.094357	13670.707031
10020.778839	0.083921	0.094357	13756.306641
10021.550546	0.869495	0.281287	382.577637
10021.551418	1.312376	0.281287	1526.969116
10021.552337	1.326573	0.281287	2746.090332
10021.553295	1.298467	0.281287	3990.021484
10021.554226	1.268987	0.281287	5171.448242
10021.555108	1.241634	0.281287	6266.569824
10021.556067	1.213389	0.281287	7430.209473
10021.557005	1.185945	0.281287	8542.625977
10021.557925	1.160687	0.281287	9610.458008
10021.558788	1.137107	0.281287	10591.781250
10021.559771	1.117734	0.281287	11690.513672
10021.560727	1.087266	0.281287	12729.939453
10021.561625	0.313304	0.281287	13011.287109
10021.562560	0.085529	0.281287	13091.255859
10021.563514	0.083921	0.281287	13171.316406
10021.564384	0.083979	0.281287	13244.378906
10021.565284	0.083932	0.281287	13319.917969
10021.566219	0.083844	0.281287	13398.312500
10021.567178	0.083866	0.281287	13478.740234
10021.568070	0.083969	0.281287	13553.640625
10021.568978	0.083895	0.281287	13629.817383
10021.569950	0.083961	0.281287	13711.427734
10022.826436	0.858365	0.098554	367.380432
10022.827308	1.311991	0.098554	1511.436523
10022.828434	1.322941	0.098554	3001.067871
10022.829344	1.294552	0.098554	4179.110352
10022.830217	1.266976	0.098554	5285.180664
10022.831256	1.234926	0.098554	6568.268555
10022.832239	1.205750	0.098554	7753.520508
10022.833114	1.180723	0.098554	8786.652344
10022.833984	1.155857	0.098554	9792.248047
10022.835098	1.129405	0.098554	11050.406250
10022.835993	1.111058	0.098554	12044.803711
10022.836856	0.982233	0.098554	12892.470703
10022.837931	0.133638	0.098554	13036.130859
10022.838892	0.083793	0.098554	13116.655273
10022.839769	0.083939	0.098554	13190.269531
10022.840626	0.083943	0.098554	13262.208984
10022.841720	0.083987	0.098554	13354.090820
10022.842603	0.083936	0.098554	13428.206055
10022.843477	0.084056	0.098554	13501.670898
10022.844464	0.083972	0.098554	13584.551758
10022.845462	0.083921	0.098554	13668.304687
10022.846354	0.083932	0.098554	13743.171875
10023.617986	0.853400	0.277134	364.401642
10023.618920	1.311097	0.277134	1588.966553
10023.619827	1.325599	0.277134	2791.285156
10023.620782	1.297463	0.277134	4030.362793
10023.621678	1.269119	0.277134	5167.493164
10023.622595	1.240796	0.277134	6305.302734
10023.623558	1.212385	0.277134	7472.830078
10023.624457	1.186231	0.277134	8539.250977
10023.625376	1.161431	0.277134	9606.605469
10023.626336	1.135598	0.277134	10696.779297
10023.627267	1.117097	0.277134	11736.796875
10023.628144	1.095011	0.277134	12697.121094
10023.629088	0.318047	0.277134	12997.357422
10023.630045	0.084877	0.277134	13078.583984
10023.630944	0.083979	0.277134	13154.082031
10023.631819	0.083899	0.277134	13227.493164
10023.632766	0.083917	0.277134	13306.962891
10023.633724	0.084049	0.277134	13387.481445
10023.634617	0.083928	0.277134	13462.429687
10023.635505	0.083855	0.277134	13536.892578
10023.636444	0.083855	0.277134	13615.632812
10023.637409	0.083914	0.277134	13696.609375
10024.895018	0.917699	0.098873	492.804382
10024.895899	1.320612	0.098873	1656.263184
10024.896813	1.324893	0.098873	2867.215088
10024.897695	1.298214	0.098873	4012.239746
10024.898665	1.267097	0.098873	5241.324219
10024.899601	1.238719	0.098873	6400.765625
10024.900482	1.212477	0.098873	7468.958008
10024.901492	1.184202	0.098873	8665.001953
10024.902405	1.157952	0.098873	9722.211914
10024.903327	1.133848	0.098873	10767.619141
10024.904205	1.117141	0.098873	11748.468750
10024.905176	1.054622	0.098873	12772.505859
10024.906131	0.236389	0.098873	12998.257812
10024.907002	0.084368	0.098873	13071.742187
10024.907959	0.083976	0.098873	13152.107422
10024.908895	0.083987	0.098873	13230.718750
10024.909797	0.083925	0.098873	13306.418945
10024.910682	0.083925	0.098873	13380.692383
10024.911634	0.083947	0.098873	13460.609375
10024.912551	0.083976	0.098873	13537.615234
10024.913443	0.083939	0.098873	13612.489258
10024.914301	0.083998	0.098873	13684.559570
10025.686549	0.939976	0.272078	473.747681
10025.687464	1.320824	0.272078	1682.301636
10025.688341	1.325548	0.272078	2844.807373
10025.689257	1.297581	0.272078	4033.391113
10025.690214	1.267504	0.272078	5246.392090
10025.691136	1.239203	0.272078	6388.937012
10025.692010	1.212770	0.272078	7448.897949
10025.692989	1.185245	0.272078	8609.252930
10025.693944	1.158743	0.272078	9715.852539
10025.694847	1.134532	0.272078	10740.334961
10025.695755	1.117079	0.272078	11754.642578
10025.696700	1.064956	0.272078	12761.026367
10025.697668	0.240553	0.272078	12993.881836
10025.698548	0.084492	0.272078	13068.235352
10025.699457	0.083954	0.272078	13144.549805
10025.700410	0.084005	0.272078	13224.606445
10025.701338	0.083950	0.272078	13302.512695
10025.702206	0.083979	0.272078	13375.407227
10025.703155	0.083895	0.272078	13455.023437
10025.704082	0.083954	0.272078	13532.848633
10025.705007	0.083950	0.272078	13610.502930
10025.705868	0.083958	0.272078	13682.790039
10026.963401	0.862313	0.096351	374.243927
10026.964275	1.312233	0.096351	1521.135254
10026.965246	1.326226	0.096351	2808.900391
10026.966181	1.298588	0.096351	4023.079834
10026.967069	1.270027	0.096351	5150.863770
10026.967993	1.242133	0.096351	6298.594238
10026.968931	1.213268	0.096351	7436.639648
10026.969875	1.186538	0.096351	8556.731445
10026.970771	1.161559	0.096351	9597.488281
10026.971702	1.137019	0.096351	10656.052734
10026.972663	1.117863	0.096351	11730.318359
10026.973596	1.088946	0.096351	12746.305664
10026.974463	0.325298	0.096351	13028.338867
10026.975397	0.085408	0.096351	13108.109375
10026.976332	0.083921	0.096351	13186.575195
10026.977254	0.084089	0.096351	13264.105469
10026.978115	0.084023	0.096351	13336.449219
10026.979085	0.084009	0.096351	13417.937500
10026.980010	0.084031	0.096351	13495.666016
10026.980872	0.084042	0.096351	13568.110352
10026.981888	0.084001	0.096351	13653.456055
10026.982829	0.084038	0.096351	13732.536133
10027.754986	0.897191	0.268997	416.296692
10027.755858	1.314781	0.268997	1562.786133
10027.756838	1.324409	0.268997	2860.707031
10027.757906	1.292549	0.268997	4241.149414
10027.758812	1.263618	0.268997	5385.987305
10027.759676	1.236178	0.268997	6454.044922
10027.760780	1.204255	0.268997	7783.542969
10027.761755	1.176863	0.268997	8930.984375
10027.762626	1.152894	0.268997	9935.155273
10027.763666	1.127615	0.268997	11107.875000
10027.764719	1.105327	0.268997	12271.784180
10027.765622	0.757057	0.268997	12955.406250
10027.766545	0.108094	0.268997	13055.177734
10027.767627	0.083848	0.268997	13145.901367
10027.768576	0.083965	0.268997	13225.583984
10027.769440	0.083990	0.268997	13298.151367
10027.770495	0.084005	0.268997	13386.776367
10027.771498	0.083943	0.268997	13470.970703
10027.772386	0.084075	0.268997	13545.628906
10027.773357	0.084042	0.268997	13627.233398
10027.774403	0.084042	0.268997	13715.140625
10027.775312	0.083950	0.268997	13791.451172
10029.031912	0.879906	0.095735	414.435730
10029.032851	1.319780	0.095735	1653.709473
10029.033777	1.324889	0.095735	2880.556641
10029.034663	1.297917	0.095735	4030.511475
10029.035612	1.268273	0.095735	5234.102539
10029.036556	1.238892	0.095735	6403.616211
10029.037448	1.212173	0.095735	7484.874512
10029.038502	1.181510	0.095735	8730.186523
10029.039457	1.155751	0.095735	9833.928711
10029.040385	1.131778	0.095735	10884.218750
10029.041254	1.114845	0.095735	11853.018555
10029.042240	1.007439	0.095735	12846.353516
10029.043200	0.182347	0.095735	13021.407227
10029.044076	0.083917	0.095735	13094.918945
10029.044946	0.083943	0.095735	13167.949219
10029.045918	0.083899	0.095735	13249.499023
10029.046876	0.083903	0.095735	13329.877930
10029.047768	0.084042	0.095735	13404.842773
10029.048678	0.083921	0.095735	13481.210937
10029.049637	0.083965	0.095735	13561.733398
10029.050526	0.084016	0.095735	13636.423828
10029.051437	0.084053	0.095735	13712.996094
10029.823529	0.934409	0.272090	484.958374
10029.824567	1.326877	0.272090	1862.257202
10029.825456	1.321655	0.272090	3037.208740
10029.826418	1.292186	0.272090	4280.291992
10029.827486	1.258282	0.272090	5624.137695
10029.828412	1.229766	0.272090	6762.900391
10029.829276	1.203545	0.272090	7802.763184
10029.830326	1.174050	0.272090	9035.515625
10029.831354	1.146204	0.272090	10213.812500
10029.832244	1.125835	0.272090	11215.805664
10029.833223	1.104906	0.272090	12297.508789
10029.834293	0.562613	0.272090	12899.504883
10029.835210	0.089491	0.272090	12981.568359
10029.836070	0.083866	0.272090	13053.693359
10029.837165	0.083972	0.272090	13145.642578
10029.838158	0.083910	0.272090	13228.964844
10029.839047	0.083914	0.272090	13303.564453
10029.840040	0.083990	0.272090	13386.966797
10029.841092	0.083925	0.272090	13475.255859
10029.841986	0.083969	0.272090	13550.323242
10029.842848	0.083998	0.272090	13622.729492
10029.843948	0.083994	0.272090	13715.123047
10031.100349	0.849730	0.102784	363.684509
10031.101215	1.310193	0.102784	1498.311523
10031.102173	1.326991	0.102784	2769.568848
10031.103113	1.298467	0.102784	3990.127686
10031.104044	1.269485	0.102784	5172.018066
10031.104913	1.242063	0.102784	6251.370605
10031.105895	1.213085	0.102784	7442.619629
10031.106859	1.185667	0.102784	8585.602539
10031.107757	1.160731	0.102784	9627.939453
10031.108690	1.136188	0.102784	10688.002930
10031.109646	1.117467	0.102784	11756.301758
10031.110537	1.091722	0.102784	12729.026367
10031.111433	0.329857	0.102784	13024.578125
10031.112378	0.084792	0.102784	13104.707031
10031.113330	0.083899	0.102784	13184.579102
10031.114226	0.083994	0.102784	13259.837891
10031.115127	0.083895	0.102784	13335.427734
10031.116092	0.083899	0.102784	13416.390625
10031.117017	0.083965	0.102784	13494.058594
10031.117878	0.083873	0.102784	13566.273437
10031.118848	0.083855	0.102784	13647.612305
10031.119786	0.083917	0.102784	13726.327148
10031.890953	0.906233	0.271402	453.116455
10031.891833	1.317653	0.271402	1612.650757
10031.892757	1.324673	0.271402	2836.648437
10031.893854	1.292563	0.271402	4254.590820
10031.894795	1.262432	0.271402	5442.539062
10031.895662	1.235369	0.271402	6513.603516
10031.896721	1.204032	0.271402	7788.673340
10031.897749	1.174863	0.271402	8996.432617
10031.898640	1.150822	0.271402	10021.814453
10031.899603	1.128102	0.271402	11108.176758
10031.900657	1.105100	0.271402	12272.952148
10031.901583	0.730371	0.271402	12949.275391
10031.902440	0.105454	0.271402	13039.649414
10031.903529	0.083936	0.271402	13131.055664
10031.904525	0.083910	0.271402	13214.629883
10031.905410	0.083925	0.271402	13288.903320
10031.906381	0.083958	0.271402	13370.425781
10031.907437	0.083925	0.271402	13459.049805
10031.908354	0.083950	0.271402	13536.032227
10031.909216	0.083899	0.271402	13608.353516
10031.910304	0.084027	0.271402	13699.775391
10031.911292	0.083925	0.271402	13782.692383
10033.168894	0.880686	0.101833	424.490662
10033.169810	1.320026	0.101833	1633.634033
10033.170736	1.325017	0.101833	2860.599854
10033.171608	1.298152	0.101833	3992.588379
10033.172586	1.267445	0.101833	5232.149414
10033.173548	1.238269	0.101833	6423.364258
10033.174442	1.211374	0.101833	7506.333008
10033.175368	1.185128	0.101833	8603.761719
10033.176336	1.158534	0.101833	9725.222656
10033.177232	1.134445	0.101833	10741.684570
10033.178144	1.116991	0.101833	11760.379883
10033.179077	1.061393	0.101833	12750.659180
10033.180038	0.236938	0.101833	12978.357422
10033.180917	0.084401	0.101833	13052.545898
10033.181830	0.083895	0.101833	13129.142578
10033.182776	0.083965	0.101833	13208.573242
10033.183702	0.083939	0.101833	13286.300781
10033.184581	0.083892	0.101833	13360.041016
10033.185554	0.083921	0.101833	13441.696289
10033.186501	0.083917	0.101833	13521.166016
10033.187399	0.083917	0.101833	13596.523437
10033.188265	0.083903	0.101833	13669.182617
10033.959354	0.856223	0.266040	360.469940
10033.960440	1.322622	0.266040	1796.837524
10033.961369	1.321981	0.266040	3024.958008
10033.962246	1.294698	0.266040	4160.408691
10033.963249	1.263893	0.266040	5428.093262
10033.964263	1.232179	0.266040	6677.522461
10033.965155	1.205684	0.266040	7752.992187
10033.966019	1.180246	0.266040	8772.725586
10033.967074	1.151774	0.266040	9987.846680
10033.968014	1.128743	0.266040	11048.865234
10033.968890	1.111197	0.266040	12022.274414
10033.969874	0.870381	0.266040	12878.729492
10033.970904	0.111958	0.266040	12994.045898
10033.971793	0.083716	0.266040	13068.469727
10033.972652	0.083862	0.266040	13140.507812
10033.973744	0.083961	0.266040	13232.193359
10033.974679	0.083782	0.266040	13310.529297
10033.975552	0.083822	0.266040	13383.706055
10033.976513	0.083947	0.266040	13464.378906
10033.977535	0.083833	0.266040	13550.056641
10033.978411	0.083855	0.266040	13623.513672
10033.979268	0.083917	0.266040	13695.430664
10035.236316	0.876171	0.106458	391.648315
10035.237235	1.317374	0.106458	1602.315186
10035.238114	1.326910	0.106458	2768.669434
10035.239079	1.299093	0.106458	4022.294189
10035.239993	1.268573	0.106458	5181.770020
10035.240931	1.240411	0.106458	6345.275879
10035.241800	1.213176	0.106458	7399.525879
10035.242912	1.182510	0.106458	8714.476562
10035.243945	1.154440	0.106458	9907.012695
10035.244831	1.131145	0.106458	10909.207031
10035.245742	1.113296	0.106458	11923.419922
10035.246829	0.856425	0.106458	12854.353516
10035.247781	0.121923	0.106458	12970.423828
10035.248641	0.083844	0.106458	13042.529297
10035.249693	0.083976	0.106458	13130.872070
10035.250711	0.084005	0.106458	13216.389648
10035.251587	0.083950	0.106458	13289.929687
10035.252531	0.084031	0.106458	13369.254883
10035.253599	0.083917	0.106458	13458.878906
10035.254514	0.083903	0.106458	13535.649414
10035.255384	0.083947	0.106458	13608.682617
10035.256427	0.084067	0.106458	13696.365234
10036.030003	0.953716	0.254172	513.099121
10036.030971	1.325281	0.254172	1795.970947
10036.031905	1.321981	0.254172	3030.701416
10036.032773	1.295002	0.254172	4154.763672
10036.033812	1.263029	0.254172	5467.050293
10036.034696	1.235164	0.254172	6558.935059
10036.035564	1.208961	0.254172	7608.313477
10036.036451	1.182539	0.254172	8657.225586
10036.037515	1.154194	0.254172	9885.288086
10036.038428	1.130918	0.254172	10917.816406
10036.039307	1.114123	0.254172	11897.130859
10036.040315	0.950369	0.254172	12855.102539
10036.041249	0.153468	0.254172	12998.441406
10036.042176	0.083716	0.254172	13076.045898
10036.043044	0.083979	0.254172	13148.940430
10036.044065	0.083873	0.254172	13234.575195
10036.044942	0.083899	0.254172	13308.154297
10036.045814	0.083862	0.254172	13381.282227
10036.046798	0.083954	0.254172	13463.892578
10036.047746	0.083936	0.254172	13543.463867
10036.048650	0.083932	0.254172	13619.337891
10036.049528	0.083983	0.254172	13693.075195
10037.305931	0.956052	0.103054	543.037659
10037.307008	1.328386	0.103054	1973.709473
10037.307889	1.319733	0.103054	3136.394043
10037.308766	1.291011	0.103054	4268.610352
10037.309888	1.257209	0.103054	5679.199219
10037.310847	1.227902	0.103054	6856.756836
10037.311709	1.202139	0.103054	7893.000488
10037.312725	1.173479	0.103054	9085.254883
10037.313775	1.145281	0.103054	10287.799805
10037.314668	1.124806	0.103054	11292.250977
10037.315611	1.103950	0.103054	12333.276367
10037.316687	0.525099	0.103054	12898.283203
10037.317634	0.087982	0.103054	12981.602539
10037.318500	0.083899	0.103054	13054.258789
10037.319565	0.084045	0.103054	13143.767578
10037.320572	0.083947	0.103054	13228.301758
10037.321463	0.083947	0.103054	13303.097656
10037.322433	0.083936	0.103054	13384.515625
10037.323485	0.083884	0.103054	13472.761719
10037.324405	0.083914	0.103054	13549.961914
10037.325267	0.083899	0.103054	13622.283203
10037.326345	0.084045	0.103054	13712.883789
10038.097363	0.873420	0.256054	379.064453
10038.098246	1.313075	0.256054	1538.509644
10038.099115	1.327830	0.256054	2692.393555
10038.100153	1.298141	0.256054	4039.863770
10038.101058	1.268276	0.256054	5187.653809
10038.101990	1.240228	0.256054	6343.546875
10038.102857	1.212861	0.256054	7395.097656
10038.103900	1.183744	0.256054	8629.742187
10038.104796	1.158937	0.256054	9668.149414
10038.105677	1.135767	0.256054	10668.759766
10038.106676	1.115965	0.256054	11783.609375
10038.107613	1.058573	0.256054	12775.492187
10038.108541	0.242318	0.256054	13000.363281
10038.109404	0.084653	0.256054	13073.418945
10038.110442	0.083862	0.256054	13160.467773
10038.111327	0.083888	0.256054	13234.708984
10038.112202	0.083958	0.256054	13308.171875
10038.113183	0.083910	0.256054	13390.487305
10038.114149	0.083939	0.256054	13471.572266
10038.115050	0.083906	0.256054	13547.171875
10038.115928	0.083936	0.256054	13620.867187
10038.116946	0.083906	0.256054	13706.284180
10039.374283	0.862870	0.103823	378.799896
10039.375146	1.311434	0.103823	1510.567749
10039.376244	1.323182	0.103823	2963.421875
10039.377222	1.293234	0.103823	4228.204102
10039.378090	1.265435	0.103823	5326.601562
10039.379088	1.234936	0.103823	6559.068359
10039.380150	1.203519	0.103823	7837.206055
10039.381042	1.178156	0.103823	8888.121094
10039.381935	1.152729	0.103823	9917.508789
10039.383035	1.126893	0.103823	11157.091797
10039.383996	1.106678	0.103823	12220.609375
10039.384872	0.831779	0.103823	12949.247070
10039.385897	0.105139	0.103823	13057.014648
10039.386931	0.083932	0.103823	13143.799805
10039.387824	0.084001	0.103823	13218.813477
10039.388750	0.083943	0.103823	13296.544922
10039.389820	0.084016	0.103823	13386.442383
10039.390765	0.084001	0.103823	13465.824219
10039.391634	0.083943	0.103823	13538.770508
10039.392699	0.083954	0.103823	13628.181641
10039.393697	0.083972	0.103823	13711.986328
10039.394585	0.084016	0.103823	13786.592773
10040.165832	0.860200	0.256126	369.886108
10040.166695	1.310596	0.256126	1500.930298
10040.167682	1.325775	0.256126	2809.470215
10040.168633	1.297657	0.256126	4043.542480
10040.169515	1.269503	0.256126	5163.244141
10040.170453	1.241001	0.256126	6327.303223
10040.171386	1.212458	0.256126	7458.526855
10040.172327	1.185487	0.256126	8574.070312
10040.173211	1.160995	0.256126	9600.389648
10040.174137	1.136082	0.256126	10652.401367
10040.175101	1.116866	0.256126	11729.060547
10040.176038	1.086958	0.256126	12747.540039
10040.176905	0.314169	0.256126	13019.923828
10040.177880	0.084829	0.256126	13102.631836
10040.178814	0.083892	0.256126	13180.986328
10040.179676	0.083972	0.256126	13253.370117
10040.180669	0.083873	0.256126	13336.656250
10040.181590	0.083954	0.256126	13413.977539
10040.182476	0.083877	0.256126	13488.292969
10040.183354	0.083848	0.256126	13561.911133
10040.184324	0.083870	0.256126	13643.264648
10040.185275	0.083892	0.256126	13723.045898
10041.441726	0.848994	0.104166	359.124512
10041.442764	1.319729	0.104166	1729.003174
10041.443725	1.322915	0.104166	3000.324463
10041.444597	1.295815	0.104166	4130.275391
10041.445472	1.266672	0.104166	5238.613770
10041.446588	1.234680	0.104166	6616.516602
10041.447463	1.207646	0.104166	7673.207031
10041.448334	1.182667	0.104166	8703.310547
10041.449375	1.154022	0.104166	9904.647461
10041.450367	1.129365	0.104166	11024.977539
10041.451249	1.111761	0.104166	12005.550781
10041.452119	0.923877	0.104166	12809.324219
10041.453238	0.125101	0.104166	12949.312500
10041.454137	0.083793	0.104166	13024.642578
10041.455000	0.083903	0.104166	13097.050781
10041.456067	0.084005	0.104166	13186.684570
10041.457032	0.083881	0.104166	13267.628906
10041.457957	0.083961	0.104166	13345.292969
10041.458821	0.083906	0.104166	13417.788086
10041.459932	0.083906	0.104166	13511.007812
10041.460816	0.083833	0.104166	13585.116211
10041.461675	0.083910	0.104166	13657.195312
10042.236343	0.844947	0.247900	354.877930
10042.237265	1.310054	0.247900	1562.747437
10042.238211	1.325848	0.247900	2817.000000
10042.239150	1.297478	0.247900	4035.332031
10042.240028	1.269642	0.247900	5150.078125
10042.240959	1.240811	0.247900	6305.272949
10042.241921	1.212308	0.247900	7471.513672
10042.242831	1.185714	0.247900	8550.513672
10042.243707	1.161262	0.247900	9567.779297
10042.244669	1.136118	0.247900	10660.724609
10042.245623	1.117255	0.247900	11726.585937
10042.246518	1.094495	0.247900	12706.158203
10042.247445	0.354899	0.247900	13035.149414
10042.248365	0.084990	0.247900	13113.340820
10042.249309	0.083837	0.247900	13192.482422
10042.250187	0.083873	0.247900	13266.123047
10042.251124	0.083925	0.247900	13344.760742
10042.252084	0.083767	0.247900	13425.176758
10042.252955	0.083979	0.247900	13498.323242
10042.253875	0.083939	0.247900	13575.546875
10042.254806	0.083851	0.247900	13653.612305
10042.255736	0.083884	0.247900	13731.625000
10043.509225	0.875354	0.104085	412.291718
10043.510220	1.322776	0.104085	1728.453735
10043.511158	1.323475	0.104085	2969.873535
10043.512042	1.295947	0.104085	4115.491211
10043.512921	1.267500	0.104085	5229.624023
10043.513903	1.238057	0.104085	6445.395508
10043.514811	1.210364	0.104085	7544.405762
10043.515695	1.184392	0.104085	8591.408203
10043.516732	1.156553	0.104085	9790.752930
10043.517626	1.132877	0.104085	10803.544922
10043.518557	1.115321	0.104085	11841.909180
10043.519429	1.029987	0.104085	12740.057617
10043.520434	0.201903	0.104085	12942.970703
10043.521361	0.084001	0.104085	13020.839844
10043.522224	0.083895	0.104085	13093.241211
10043.523251	0.083873	0.104085	13179.378906
10043.524129	0.083936	0.104085	13253.074219
10043.525060	0.083947	0.104085	13331.228516
10043.525918	0.083943	0.104085	13403.251953
10043.526896	0.083936	0.104085	13485.340820
10043.527822	0.083906	0.104085	13563.038086
10043.528710	0.083987	0.104085	13637.618164
10044.303800	0.857985	0.250684	361.211548
10044.304777	1.318191	0.250684	1649.084106
10044.305709	1.324797	0.250684	2883.795166
10044.306590	1.298049	0.250684	4027.376465
10044.307522	1.268723	0.250684	5209.826172
10044.308494	1.238903	0.250684	6414.039551
10044.309419	1.211111	0.250684	7534.316895
10044.310283	1.185531	0.250684	8558.615234
10044.311245	1.159614	0.250684	9674.164062
10044.312179	1.134346	0.250684	10733.642578
10044.313105	1.116709	0.250684	11767.714844
10044.313976	1.081355	0.250684	12709.575195
10044.314953	0.266353	0.250684	12969.801758
10044.315910	0.084368	0.250684	13050.541992
10044.316798	0.083870	0.250684	13125.018555
10044.317709	0.083895	0.250684	13201.447266
10044.318670	0.083804	0.250684	13281.982422
10044.319561	0.083800	0.250684	13356.648437
10044.320484	0.083833	0.250684	13434.026367
10044.321403	0.083884	0.250684	13511.116211
10044.322352	0.083844	0.250684	13590.684570
10044.323237	0.083851	0.250684	13664.892578
10045.576664	0.861328	0.105076	378.984375
10045.577542	1.311907	0.105076	1530.838501
10045.578414	1.328302	0.105076	2689.117920
10045.579305	1.301715	0.105076	3848.946045
10045.580276	1.271217	0.105076	5083.297852
10045.581209	1.242623	0.105076	6242.665527
10045.582099	1.215879	0.105076	7324.797852
10045.583034	1.189178	0.105076	8436.679687
10045.583992	1.162698	0.105076	9550.543945
10045.584916	1.137880	0.105076	10601.944336
10045.585793	1.120016	0.105076	11584.198242
10045.586757	1.096769	0.105076	12641.483398
10045.587709	0.343304	0.105076	12968.309570
10045.588635	0.085474	0.105076	13047.458008
10045.589497	0.083840	0.105076	13119.728516
10045.590466	0.083888	0.105076	13201.015625
10045.591390	0.083906	0.105076	13278.544922
10045.592282	0.084009	0.105076	13353.480469
10045.593194	0.083928	0.105076	13430.023437
10045.594138	0.083936	0.105076	13509.258789
10045.595038	0.083899	0.105076	13584.767578
10045.595903	0.083910	0.105076	13657.349609
10045.596918	0.083961	0.105076	13742.570312
10046.373326	0.862676	0.246233	377.851990
10046.374191	1.311006	0.246233	1511.872070
10046.375251	1.323710	0.246233	2915.004395
10046.376275	1.292479	0.246233	4238.502930
10046.377160	1.264446	0.246233	5357.537598
10046.378121	1.235424	0.246233	6544.779785
10046.379162	1.203941	0.246233	7798.082031
10046.380096	1.177570	0.246233	8897.931641
10046.380959	1.153319	0.246233	9893.246094
10046.382005	1.128387	0.246233	11073.539062
10046.383042	1.106437	0.246233	12220.914062
10046.383920	0.825179	0.246233	12945.421875
10046.384896	0.116635	0.246233	13059.256836
10046.385950	0.083763	0.246233	13147.543945
10046.386864	0.083895	0.246233	13224.224609
10046.387730	0.083939	0.246233	13296.916016
10046.388824	0.083983	0.246233	13388.793945
10046.389817	0.083800	0.246233	13472.007812
10046.390707	0.083910	0.246233	13546.687500
10046.391692	0.083914	0.246233	13629.342773
10046.392747	0.083888	0.246233	13717.844727
10046.393645	0.083848	0.246233	13793.139648
10047.644150	0.874761	0.103485	409.388031
10047.645035	1.315378	0.103485	1573.497925
10047.645895	1.327643	0.103485	2715.270752
10047.646829	1.299386	0.103485	3928.897461
10047.647806	1.268591	0.103485	5168.311035
10047.648741	1.240411	0.103485	6328.095703
10047.649611	1.213817	0.103485	7384.116699
10047.650578	1.186447	0.103485	8531.410156
10047.651535	1.160116	0.103485	9641.640625
10047.652433	1.136008	0.103485	10661.776367
10047.653349	1.118240	0.103485	11686.083984
10047.654312	1.086383	0.103485	12732.270508
10047.655247	0.283586	0.103485	12997.423828
10047.656114	0.084968	0.103485	13071.091797
10047.657027	0.083844	0.103485	13147.641602
10047.657978	0.083884	0.103485	13227.416016
10047.658872	0.084016	0.103485	13302.526367
10047.659781	0.083928	0.103485	13378.817383
10047.660743	0.083873	0.103485	13459.503906
10047.661665	0.083851	0.103485	13536.814453
10047.662544	0.083943	0.103485	13610.600586
10047.663501	0.083921	0.103485	13690.913086
10048.443830	0.844797	0.241995	354.814911
10048.444839	1.316349	0.241995	1683.010986
10048.445897	1.320963	0.241995	3080.589844
10048.446797	1.292472	0.241995	4243.814453
10048.447677	1.263497	0.241995	5355.692383
10048.448778	1.231003	0.241995	6711.027344
10048.449736	1.202593	0.241995	7863.111328
10048.450612	1.177515	0.241995	8894.614258
10048.451502	1.152598	0.241995	9920.425781
10048.452603	1.127377	0.241995	11161.667969
10048.453486	1.108312	0.241995	12140.307617
10048.454350	0.905438	0.241995	12922.606445
10048.455382	0.118828	0.241995	13045.237305
10048.456345	0.083785	0.241995	13125.922852
10048.457219	0.084031	0.241995	13199.366211
10048.458088	0.083943	0.241995	13272.312500
10048.459213	0.083888	0.241995	13366.686523
10048.460108	0.083976	0.241995	13441.844727
10048.460973	0.083917	0.241995	13514.433594
10048.462070	0.083950	0.241995	13606.527344
10048.463039	0.083932	0.241995	13687.857422
10048.463914	0.084001	0.241995	13761.358398
10049.711603	0.895052	0.100713	426.044983
10049.712480	1.316191	0.100713	1580.344971
10049.713351	1.326709	0.100713	2735.908691
10049.714330	1.298452	0.100713	4007.093262
10049.715293	1.268104	0.100713	5228.277344
10049.716189	1.240316	0.100713	6339.600586
10049.717111	1.213341	0.100713	7458.301270
10049.718043	1.185498	0.100713	8563.185547
10049.718998	1.159541	0.100713	9670.546875
10049.719884	1.136144	0.100713	10677.169922
10049.720896	1.116006	0.100713	11806.567383
10049.721947	0.964622	0.100713	12820.384766
10049.722910	0.157610	0.100713	12972.163086
10049.723773	0.083877	0.100713	13044.548828
10049.724843	0.083998	0.100713	13134.426758
10049.725868	0.083914	0.100713	13220.438477
10049.726750	0.083855	0.100713	13294.398437
10049.727687	0.083972	0.100713	13373.080078
10049.728776	0.083943	0.100713	13464.494141
10049.729707	0.083906	0.100713	13542.611328
10049.730564	0.083969	0.100713	13614.572266
10049.731585	0.084082	0.100713	13700.419922
10050.513353	0.856022	0.240242	372.369446
10050.514230	1.312310	0.240242	1523.264893
10050.515154	1.326522	0.240242	2748.971436
10050.516166	1.297064	0.240242	4061.600342
10050.517100	1.267467	0.240242	5245.414551
10050.517973	1.240397	0.240242	6328.280762
10050.519023	1.209675	0.240242	7598.439941
10050.519916	1.183678	0.240242	8655.464844
10050.520783	1.159285	0.240242	9660.564453
10050.521675	1.134891	0.240242	10672.887695
10050.522726	1.114614	0.240242	11844.347656
10050.523622	1.056581	0.240242	12791.043945
10050.524504	0.251946	0.240242	13013.259766
10050.525495	0.084635	0.240242	13097.132812
10050.526424	0.083859	0.240242	13175.037109
10050.527348	0.083859	0.240242	13252.522461
10050.528212	0.083906	0.240242	13325.017578
10050.529254	0.083826	0.240242	13412.364258
10050.530134	0.083859	0.240242	13486.160156
10050.531005	0.083994	0.240242	13559.319336
10050.531968	0.083840	0.240242	13640.057617
10050.532925	0.083895	0.240242	13720.345703
10051.780027	0.845387	0.101584	356.753296
10051.781024	1.313240	0.101584	1666.053345
10051.782080	1.321465	0.101584	3061.520264
10051.782995	1.292875	0.101584	4244.500488
10051.783858	1.264457	0.101584	5335.726562
10051.784942	1.231956	0.101584	6671.166504
10051.785935	1.202271	0.101584	7865.020996
10051.786832	1.177255	0.101584	8921.018555
10051.787832	1.150115	0.101584	10071.132812
10051.788896	1.125454	0.101584	11268.616211
10051.789788	1.105792	0.101584	12254.982422
10051.790673	0.748813	0.101584	12917.682617
10051.791777	0.093787	0.101584	13021.222656
10051.792740	0.083745	0.101584	13101.869141
10051.793605	0.083837	0.101584	13174.387695
10051.794633	0.083976	0.101584	13260.714844
10051.795660	0.083903	0.101584	13346.882812
10051.796559	0.083928	0.101584	13422.333984
10051.797492	0.083972	0.101584	13500.679687
10051.798555	0.083961	0.101584	13589.930664
10051.799486	0.083903	0.101584	13668.043945
10051.800351	0.083903	0.101584	13740.620117
10052.584952	0.885502	0.234567	431.239349
10052.585940	1.323743	0.234567	1739.097046
10052.586863	1.323142	0.234567	2960.357178
10052.587750	1.295731	0.234567	4109.670898
10052.588819	1.262714	0.234567	5459.511719
10052.589728	1.234219	0.234567	6581.416504
10052.590606	1.207837	0.234567	7641.897461
10052.591495	1.181686	0.234567	8692.416016
10052.592542	1.153817	0.234567	9900.462891
10052.593428	1.130951	0.234567	10902.485352
10052.594300	1.114450	0.234567	11874.285156
10052.595328	0.951398	0.234567	12852.322266
10052.596232	0.162048	0.234567	12998.814453
10052.597142	0.083892	0.234567	13075.156250
10052.598020	0.083969	0.234567	13148.880859
10052.599045	0.083899	0.234567	13234.876953
10052.599944	0.083877	0.234567	13310.282227
10052.600817	0.083947	0.234567	13383.567383
10052.601768	0.083903	0.234567	13463.358398
10052.602738	0.083943	0.234567	13544.783203
10052.603662	0.083906	0.234567	13622.312500
10052.604523	0.083932	0.234567	13694.578125
10053.847625	0.964695	0.102059	546.981934
10053.848693	1.328536	0.102059	1965.858765
10053.849584	1.319553	0.102059	3141.580566
10053.850469	1.291062	0.102059	4284.170410
10053.851557	1.257744	0.102059	5652.596191
10053.852523	1.228531	0.102059	6839.357422
10053.853388	1.202589	0.102059	7879.596680
10053.854452	1.172813	0.102059	9127.468750
10053.855492	1.144860	0.102059	10318.123047
10053.856376	1.124619	0.102059	11312.286133
10053.857331	1.103709	0.102059	12366.328125
10053.858398	0.522147	0.102059	12923.458984
10053.859319	0.088326	0.102059	13004.807617
10053.860177	0.083903	0.102059	13076.795898
10053.861222	0.083987	0.102059	13164.562500
10053.862242	0.083859	0.102059	13250.098633
10053.863129	0.083848	0.102059	13324.471680
10053.864095	0.083910	0.102059	13405.528320
10053.865151	0.083851	0.102059	13494.075195
10053.866072	0.083877	0.102059	13571.326172
10053.866934	0.083950	0.102059	13643.691406
10053.868003	0.083998	0.102059	13733.485352
10054.654398	0.848101	0.230147	359.594635
10054.655350	1.312104	0.230147	1608.718018
10054.656280	1.325068	0.230147	2841.031738
10054.657204	1.297467	0.230147	4039.891357
10054.658088	1.269280	0.230147	5161.934570
10054.659003	1.240342	0.230147	6296.847168
10054.659968	1.211689	0.230147	7466.127441
10054.660902	1.185135	0.230147	8573.043945
10054.661770	1.160728	0.230147	9580.555664
10054.662743	1.135430	0.230147	10685.329102
10054.663678	1.117258	0.230147	11729.965820
10054.664544	1.087126	0.230147	12671.416992
10054.665590	0.259772	0.230147	12943.138672
10054.666472	0.084470	0.230147	13017.641602
10054.667386	0.083881	0.230147	13094.308594
10054.668262	0.083932	0.230147	13167.833008
10054.669245	0.083936	0.230147	13250.341797
10054.670176	0.083899	0.230147	13328.452148
10054.671064	0.083958	0.230147	13403.006836
10054.671950	0.083910	0.230147	13477.350586
10054.672894	0.083884	0.230147	13556.537109
10054.673838	0.083979	0.230147	13635.813477
10055.915968	0.858424	0.102051	369.122345
10055.916835	1.311171	0.102051	1505.907227
10055.917952	1.322644	0.102051	2983.300781
10055.918918	1.293058	0.102051	4232.394531
10055.919784	1.265544	0.102051	5328.355957
10055.920855	1.232963	0.102051	6648.858887
10055.921890	1.202388	0.102051	7893.330078
10055.922780	1.176738	0.102051	8940.626953
10055.923707	1.151737	0.102051	10008.287109
10055.924764	1.126399	0.102051	11198.890625
10055.925706	1.106283	0.102051	12241.008789
10055.926574	0.822766	0.102051	12955.169922
10055.927618	0.103608	0.102051	13063.336914
10055.928647	0.083822	0.102051	13149.589844
10055.929522	0.083932	0.102051	13223.030273
10055.930462	0.084060	0.102051	13302.046875
10055.931526	0.083994	0.102051	13391.416992
10055.932464	0.083972	0.102051	13470.182617
10055.933336	0.083932	0.102051	13543.371094
10055.934387	0.083969	0.102051	13631.622070
10055.935396	0.083877	0.102051	13716.253906
10055.936286	0.084020	0.102051	13791.031250
10056.724929	0.857139	0.226675	366.855347
10056.725917	1.316495	0.226675	1667.552856
10056.726856	1.324504	0.226675	2911.262451
10056.727728	1.297321	0.226675	4042.525879
10056.728600	1.268741	0.226675	5148.868164
10056.729578	1.238980	0.226675	6360.590332
10056.730542	1.210580	0.226675	7527.589355
10056.731438	1.185106	0.226675	8589.444336
10056.732353	1.159750	0.226675	9650.615234
10056.733315	1.134628	0.226675	10742.126953
10056.734213	1.117119	0.226675	11745.299805
10056.735153	1.078704	0.226675	12759.281250
10056.736121	0.263430	0.226675	13014.281250
10056.737043	0.084412	0.226675	13092.108398
10056.737912	0.083928	0.226675	13165.041992
10056.738825	0.083903	0.226675	13241.645508
10056.739772	0.083877	0.226675	13321.077148
10056.740696	0.083983	0.226675	13398.677734
10056.741574	0.083873	0.226675	13472.318359
10056.742546	0.083954	0.226675	13553.921875
10056.743500	0.083928	0.226675	13633.989258
10056.744385	0.083998	0.226675	13708.327148
10057.985477	0.853110	0.104053	368.543640
10057.986347	1.311156	0.104053	1509.249512
10057.987284	1.326867	0.104053	2752.523437
10057.988355	1.295724	0.104053	4140.243652
10057.989248	1.267024	0.104053	5271.696289
10057.990109	1.240155	0.104053	6339.469727
10057.991158	1.209133	0.104053	7607.850586
10057.992126	1.181664	0.104053	8751.701172
10057.992999	1.157318	0.104053	9762.040039
10057.993909	1.133372	0.104053	10793.408203
10057.995004	1.112062	0.104053	12011.116211
10057.995879	0.986202	0.104053	12874.042969
10057.996750	0.185321	0.104053	13035.458008
10057.997760	0.084009	0.104053	13120.306641
10057.998742	0.083892	0.104053	13202.688477
10057.999614	0.083925	0.104053	13275.871094
10058.000473	0.083888	0.104053	13347.930664
10058.001579	0.083961	0.104053	13440.791992
10058.002484	0.083859	0.104053	13516.683594
10058.003346	0.083899	0.104053	13589.004883
10058.004429	0.083884	0.104053	13679.851562
10058.005406	0.083932	0.104053	13761.852539
10058.794447	0.869315	0.224045	385.106598
10058.795316	1.312317	0.224045	1525.509888
10058.796272	1.325658	0.224045	2792.838867
10058.797201	1.298086	0.224045	3998.760742
10058.798090	1.269825	0.224045	5127.635742
10058.799003	1.242067	0.224045	6261.642578
10058.799961	1.213575	0.224045	7424.248047
10058.800890	1.186428	0.224045	8526.439453
10058.801771	1.162024	0.224045	9550.182617
10058.802771	1.135283	0.224045	10685.465820
10058.803715	1.116713	0.224045	11739.642578
10058.804653	1.083105	0.224045	12755.595703
10058.805520	0.304420	0.224045	13019.528320
10058.806480	0.084939	0.224045	13101.069336
10058.807413	0.083870	0.224045	13179.319336
10058.808280	0.083837	0.224045	13252.005859
10058.809229	0.083903	0.224045	13331.629883
10058.810177	0.083892	0.224045	13411.159180
10058.811078	0.083895	0.224045	13486.749023
10058.811939	0.083903	0.224045	13558.989258
10058.812914	0.083892	0.224045	13640.783203
10058.813868	0.083870	0.224045	13720.794922
10060.051935	0.873856	0.106083	387.992187
10060.052852	1.316327	0.106083	1595.063965
10060.053746	1.326669	0.106083	2781.105957
10060.054653	1.299412	0.106083	3959.672363
10060.055630	1.268379	0.106083	5198.878906
10060.056562	1.239895	0.106083	6354.460937
10060.057428	1.213253	0.106083	7405.138184
10060.058455	1.184520	0.106083	8621.640625
10060.059355	1.159274	0.106083	9664.987305
10060.060275	1.135261	0.106083	10709.427734
10060.061136	1.117566	0.106083	11671.652344
10060.062132	1.066666	0.106083	12734.051758
10060.063062	0.263306	0.106083	12978.925781
10060.063951	0.084617	0.106083	13054.150391
10060.064864	0.083866	0.106083	13130.719727
10060.065830	0.083906	0.106083	13211.773437
10060.066754	0.083881	0.106083	13289.279297
10060.067622	0.083892	0.106083	13362.097656
10060.068559	0.083899	0.106083	13440.710937
10060.069519	0.083877	0.106083	13521.232422
10060.070394	0.083925	0.106083	13594.666016
10060.071552	0.083862	0.106083	13691.778320
10060.868092	0.898495	0.216503	439.364014
10060.868962	1.316624	0.216503	1584.826538
10060.869894	1.325204	0.216503	2819.916504
10060.870976	1.292794	0.216503	4218.719727
10060.871919	1.263113	0.216503	5409.834961
10060.872787	1.236182	0.216503	6482.840820
10060.873829	1.205380	0.216503	7738.846191
10060.874854	1.176237	0.216503	8944.488281
10060.875751	1.151913	0.216503	9977.753906
10060.876717	1.128519	0.216503	11067.903320
10060.877787	1.105646	0.216503	12250.944336
10060.878719	0.745012	0.216503	12945.295898
10060.879579	0.106992	0.216503	13037.309570
10060.880673	0.083925	0.216503	13129.123047
10060.881661	0.083990	0.216503	13212.105469
10060.882555	0.084034	0.216503	13287.232422
10060.883531	0.084075	0.216503	13369.289062
10060.884576	0.084031	0.216503	13457.101562
10060.885481	0.083947	0.216503	13533.073242
10060.886342	0.084012	0.216503	13605.408203
10060.887427	0.083943	0.216503	13696.486328
10060.888385	0.083954	0.216503	13776.914062
10062.122450	0.872692	0.102599	389.220459
10062.123381	1.317374	0.102599	1615.695923
10062.124247	1.326625	0.102599	2764.552979
10062.125231	1.298130	0.102599	4041.912842
10062.126199	1.267595	0.102599	5268.944824
10062.127094	1.239664	0.102599	6378.444336
10062.128010	1.212737	0.102599	7489.311523
10062.128955	1.184971	0.102599	8609.109375
10062.129905	1.158937	0.102599	9710.099609
10062.130778	1.135499	0.102599	10701.390625
10062.131694	1.117185	0.102599	11724.732422
10062.132666	1.059756	0.102599	12754.815430
10062.133601	0.251265	0.102599	12989.748047
10062.134475	0.084694	0.102599	13063.770508
10062.135451	0.083914	0.102599	13145.669922
10062.136373	0.083917	0.102599	13223.041992
10062.137288	0.084005	0.102599	13299.906250
10062.138150	0.083910	0.102599	13372.236328
10062.139124	0.083998	0.102599	13454.049805
10062.140051	0.083870	0.102599	13531.796875
10062.140913	0.083958	0.102599	13604.167969
10062.141857	0.084001	0.102599	13683.465820
10062.937632	0.926697	0.214409	477.248871
10062.938543	1.321553	0.214409	1681.183472
10062.939411	1.324611	0.214409	2830.945312
10062.940512	1.292329	0.214409	4253.799805
10062.941507	1.260443	0.214409	5507.940430
10062.942392	1.233629	0.214409	6599.702148
10062.943399	1.204186	0.214409	7812.317383
10062.944459	1.174369	0.214409	9057.148437
10062.945338	1.149606	0.214409	10067.652344
10062.946226	1.127673	0.214409	11069.026367
10062.947331	1.104393	0.214409	12289.380859
10062.948293	0.672554	0.214409	12936.377930
10062.949162	0.098390	0.214409	13021.878906
10062.950197	0.084031	0.214409	13108.850586
10062.951226	0.083899	0.214409	13195.182617
10062.952115	0.083954	0.214409	13269.817383
10062.953052	0.083950	0.214409	13348.478516
10062.954110	0.083914	0.214409	13437.258789
10062.955055	0.083972	0.214409	13516.612305
10062.955922	0.083866	0.214409	13589.324219
10062.956981	0.083983	0.214409	13678.262695
10062.957991	0.083939	0.214409	13763.041016
10064.189928	0.875768	0.112786	407.232025
10064.190808	1.315854	0.112786	1565.183960
10064.191721	1.326987	0.112786	2776.723389
10064.192648	1.298496	0.112786	3980.429199
10064.193597	1.268980	0.112786	5184.690918
10064.194488	1.241492	0.112786	6290.859863
10064.195427	1.213414	0.112786	7430.255859
10064.196389	1.185707	0.112786	8570.906250
10064.197319	1.160244	0.112786	9649.933594
10064.198184	1.136499	0.112786	10633.004883
10064.199137	1.117822	0.112786	11698.289062
10064.200097	1.079378	0.112786	12734.491211
10064.200994	0.290431	0.112786	12995.007812
10064.201868	0.085349	0.112786	13069.602539
10064.202836	0.083910	0.112786	13150.827148
10064.203781	0.083990	0.112786	13230.198242
10064.204668	0.083961	0.112786	13304.671875
10064.205588	0.083881	0.112786	13381.841797
10064.206547	0.084031	0.112786	13462.427734
10064.207433	0.083976	0.112786	13536.830078
10064.208345	0.083972	0.112786	13613.413086
10064.209273	0.083979	0.112786	13691.345703
10065.009087	0.854755	0.207879	364.980225
10065.010061	1.313009	0.207879	1643.851074
10065.011090	1.322351	0.207879	3004.550293
10065.011975	1.294794	0.207879	4150.442383
10065.012836	1.267017	0.207879	5241.343750
10065.013893	1.235240	0.207879	6546.993164
10065.014838	1.206965	0.207879	7687.575195
10065.015707	1.181935	0.207879	8714.676758
10065.016654	1.156190	0.207879	9809.588867
10065.017698	1.129724	0.207879	10989.020508
10065.018596	1.111934	0.207879	11987.537109
10065.019465	0.987872	0.207879	12845.998047
10065.020520	0.142255	0.207879	12996.077148
10065.021467	0.083807	0.207879	13075.442383
10065.022346	0.083954	0.207879	13149.238281
10065.023281	0.084020	0.207879	13227.796875
10065.024336	0.083910	0.207879	13316.322266
10065.025223	0.083910	0.207879	13390.750000
10065.026082	0.083969	0.207879	13462.878906
10065.027142	0.084012	0.207879	13551.931641
10065.028097	0.083914	0.207879	13632.069336
10065.028971	0.084001	0.207879	13705.486328
10066.256444	0.961450	0.113318	528.797607
10066.257496	1.327863	0.113318	1925.708984
10066.258390	1.320348	0.113318	3106.100098
10066.259286	1.291589	0.113318	4263.364258
10066.260394	1.257612	0.113318	5656.798828
10066.261356	1.228396	0.113318	6838.515625
10066.262229	1.202131	0.113318	7887.976074
10066.263284	1.172717	0.113318	9125.192383
10066.264319	1.144812	0.113318	10310.072266
10066.265217	1.124447	0.113318	11319.826172
10066.266183	1.103529	0.113318	12385.834961
10066.267232	0.517874	0.113318	12929.083984
10066.268145	0.088425	0.113318	13009.816406
10066.269002	0.083811	0.113318	13081.642578
10066.270074	0.084042	0.113318	13171.735352
10066.271081	0.083943	0.113318	13256.265625
10066.271962	0.083998	0.113318	13330.267578
10066.272954	0.084009	0.113318	13413.604492
10066.273991	0.083884	0.113318	13500.592773
10066.274882	0.083917	0.113318	13575.363281
10066.275752	0.084020	0.113318	13648.460937
10066.276848	0.083939	0.113318	13740.458008
10067.082682	0.851136	0.203129	361.733002
10067.083659	1.313280	0.203129	1644.807617
10067.084625	1.323717	0.203129	2923.518311
10067.085551	1.295570	0.203129	4123.216309
10067.086421	1.267526	0.203129	5225.963379
10067.087476	1.235867	0.203129	6529.802734
10067.088366	1.208862	0.203129	7605.690430
10067.089241	1.183784	0.203129	8641.501953
10067.090181	1.157937	0.203129	9729.962891
10067.091159	1.132148	0.203129	10837.204102
10067.092079	1.114585	0.203129	11862.622070
10067.092959	1.065249	0.203129	12800.041016
10067.093975	0.200918	0.203129	13004.173828
10067.094888	0.083855	0.203129	13080.733398
10067.095801	0.083925	0.203129	13157.356445
10067.096666	0.083895	0.203129	13229.925781
10067.097718	0.083958	0.203129	13318.249023
10067.098607	0.083774	0.203129	13392.724609
10067.099481	0.083998	0.203129	13466.138672
10067.100502	0.083947	0.203129	13551.847656
10067.101416	0.083884	0.203129	13628.517578
10067.102342	0.083954	0.203129	13706.258789
10068.326918	0.905925	0.109616	450.244904
10068.327843	1.320974	0.109616	1672.145874
10068.328707	1.325691	0.109616	2817.542969
10068.329791	1.293267	0.109616	4219.443848
10068.330816	1.260912	0.109616	5511.878418
10068.331707	1.233633	0.109616	6611.045410
10068.332678	1.205142	0.109616	7781.237793
10068.333737	1.174969	0.109616	9025.530273
10068.334654	1.149752	0.109616	10079.853516
10068.335520	1.128138	0.109616	11056.821289
10068.336615	1.105587	0.109616	12267.439453
10068.337604	0.667526	0.109616	12927.622070
10068.338493	0.097610	0.109616	13014.397461
10068.339496	0.083844	0.109616	13098.493164
10068.340546	0.083877	0.109616	13186.564453
10068.341437	0.084009	0.109616	13261.416016
10068.342298	0.083914	0.109616	13333.666016
10068.343395	0.083921	0.109616	13425.727539
10068.344370	0.083888	0.109616	13507.518555
10068.345231	0.083914	0.109616	13579.768555
10068.346102	0.083914	0.109616	13652.857422
10068.347209	0.084012	0.109616	13745.859375
10069.153209	0.844475	0.203113	354.679535
10069.154127	1.310387	0.203113	1557.614868
10069.155090	1.325856	0.203113	2834.414062
10069.156023	1.297562	0.203113	4045.039551
10069.156890	1.269697	0.203113	5145.867187
10069.157860	1.239551	0.203113	6348.231445
10069.158819	1.210913	0.203113	7509.497070
10069.159747	1.184605	0.203113	8608.810547
10069.160615	1.159958	0.203113	9615.654297
10069.161576	1.134873	0.203113	10706.267578
10069.162538	1.116123	0.203113	11779.978516
10069.163434	1.084285	0.203113	12751.498047
10069.164357	0.297898	0.203113	13026.458008
10069.165299	0.084510	0.203113	13106.066406
10069.166238	0.083822	0.203113	13184.775391
10069.167128	0.083881	0.203113	13259.428711
10069.168057	0.083939	0.203113	13337.408203
10069.169016	0.083899	0.203113	13417.867187
10069.169889	0.083914	0.203113	13491.124023
10069.170802	0.083939	0.203113	13567.760742
10069.171758	0.083950	0.203113	13648.017578
10069.172686	0.083899	0.203113	13725.875977
10070.395337	0.862028	0.111312	373.257935
10070.396208	1.311896	0.111312	1515.919067
10070.397251	1.324490	0.111312	2897.361816
10070.398142	1.297346	0.111312	4053.297363
10070.399018	1.269540	0.111312	5165.414062
10070.399997	1.239741	0.111312	6379.120605
10070.400957	1.210748	0.111312	7541.438965
10070.401878	1.184396	0.111312	8632.267578
10070.402751	1.159863	0.111312	9644.828125
10070.403791	1.133313	0.111312	10823.473633
10070.404669	1.116313	0.111312	11803.596680
10070.405535	1.088635	0.111312	12746.354492
10070.406457	0.310129	0.111312	13032.293945
10070.407450	0.084199	0.111312	13115.903320
10070.408364	0.083921	0.111312	13192.607422
10070.409254	0.084031	0.111312	13267.394531
10070.410242	0.083936	0.111312	13350.323242
10070.411160	0.083899	0.111312	13427.342773
10070.412085	0.083954	0.111312	13505.000000
10070.412949	0.083936	0.111312	13577.520508
10070.413989	0.083870	0.111312	13664.745117
10070.414863	0.083947	0.111312	13738.114258
10071.225844	0.881755	0.197280	411.779755
10071.226736	1.316008	0.197280	1585.659058
10071.227600	1.327141	0.197280	2732.309082
10071.228561	1.298903	0.197280	3980.554687
10071.229516	1.268079	0.197280	5191.569824
10071.230448	1.239694	0.197280	6346.964355
10071.231315	1.212839	0.197280	7398.496094
10071.232281	1.185663	0.197280	8543.846680
10071.233232	1.159585	0.197280	9646.612305
10071.234128	1.135679	0.197280	10664.180664
10071.235044	1.117756	0.197280	11688.045898
10071.235990	1.087310	0.197280	12716.640625
10071.236932	0.273135	0.197280	12973.933594
10071.237816	0.084906	0.197280	13048.990234
10071.238853	0.083921	0.197280	13136.016602
10071.239894	0.083969	0.197280	13223.427734
10071.240833	0.083928	0.197280	13302.236328
10071.241694	0.083910	0.197280	13374.482422
10071.242746	0.084045	0.197280	13462.898437
10071.243763	0.083837	0.197280	13548.160156
10071.244646	0.083961	0.197280	13622.297852
10071.245599	0.083939	0.197280	13702.291992
10072.461786	0.876346	0.117234	400.490326
10072.462682	1.315481	0.117234	1579.161255
10072.463546	1.327031	0.117234	2725.716309
10072.464526	1.298829	0.117234	3998.569092
10072.465487	1.268676	0.117234	5217.766602
10072.466384	1.240386	0.117234	6330.392578
10072.467306	1.213575	0.117234	7449.309082
10072.468246	1.185754	0.117234	8563.917969
10072.469193	1.159841	0.117234	9662.288086
10072.470069	1.136140	0.117234	10657.546875
10072.470996	1.117639	0.117234	11693.598633
10072.471961	1.079363	0.117234	12735.183594
10072.472863	0.293437	0.117234	12999.864258
10072.473775	0.085258	0.117234	13077.619141
10072.474738	0.083862	0.117234	13158.378906
10072.475664	0.083815	0.117234	13235.991211
10072.476532	0.083906	0.117234	13308.822266
10072.477520	0.083855	0.117234	13391.670898
10072.478470	0.083859	0.117234	13471.336914
10072.479403	0.083917	0.117234	13549.631836
10072.480263	0.083818	0.117234	13621.715820
10072.481227	0.083837	0.117234	13702.534180
10073.298357	0.854458	0.197071	359.726807
10073.299428	1.322476	0.197071	1776.098145
10073.300421	1.320425	0.197071	3087.279785
10073.301319	1.292637	0.197071	4248.067383
10073.302299	1.261871	0.197071	5484.701172
10073.303363	1.229674	0.197071	6793.074219
10073.304267	1.202347	0.197071	7879.996094
10073.305138	1.176702	0.197071	8904.903320
10073.306240	1.147833	0.197071	10169.815430
10073.307205	1.125513	0.197071	11255.935547
10073.308068	1.106840	0.197071	12211.138672
10073.309129	0.663534	0.197071	12915.148437
10073.310167	0.090839	0.197071	13009.438477
10073.311046	0.083815	0.197071	13083.111328
10073.311970	0.083947	0.197071	13160.677734
10073.313033	0.083877	0.197071	13249.838867
10073.313970	0.083943	0.197071	13328.493164
10073.314830	0.083910	0.197071	13400.655273
10073.315857	0.083969	0.197071	13486.890625
10073.316891	0.083950	0.197071	13573.695312
10073.317776	0.083892	0.197071	13647.939453
10073.318718	0.083994	0.197071	13727.061523
10074.530243	0.860801	0.119514	371.005157
10074.531111	1.311357	0.119514	1509.263428
10074.532103	1.325647	0.119514	2824.305176
10074.533034	1.297830	0.119514	4032.584473
10074.533901	1.269906	0.119514	5133.592773
10074.534875	1.240635	0.119514	6341.971191
10074.535840	1.212004	0.119514	7511.555664
10074.536732	1.185868	0.119514	8569.349609
10074.537647	1.160559	0.119514	9631.260742
10074.538584	1.135140	0.119514	10694.886719
10074.539536	1.116713	0.119514	11757.997070
10074.540433	1.088983	0.119514	12734.815430
10074.541364	0.303409	0.119514	13017.290039
10074.542323	0.084701	0.119514	13098.518555
10074.543239	0.083884	0.119514	13175.356445
10074.544107	0.083932	0.119514	13248.208984
10074.545051	0.083932	0.119514	13327.440430
10074.546004	0.083921	0.119514	13407.416992
10074.546886	0.083936	0.119514	13481.448242
10074.547956	0.083939	0.119514	13571.263672
10074.548898	0.083917	0.119514	13650.313477
10074.549830	0.083899	0.119514	13728.506836
10075.370948	0.857699	0.197079	370.525970
10075.371818	1.311215	0.197079	1511.282715
10075.372790	1.326046	0.197079	2800.199707
10075.373754	1.297266	0.197079	4050.763672
10075.374681	1.268049	0.197079	5226.245117
10075.375550	1.240972	0.197079	6304.649414
10075.376585	1.210855	0.197079	7557.883789
10075.377481	1.184506	0.197079	8619.201172
10075.378360	1.160142	0.197079	9638.965820
10075.379283	1.135580	0.197079	10687.105469
10075.380303	1.115603	0.197079	11825.020508
10075.381216	1.060836	0.197079	12793.564453
10075.382094	0.258618	0.197079	13020.630859
10075.383111	0.084496	0.197079	13106.563477
10075.384026	0.083888	0.197079	13183.321289
10075.384952	0.083969	0.197079	13261.076172
10075.385816	0.083921	0.197079	13333.583984
10075.386869	0.083888	0.197079	13421.917969
10075.387763	0.083906	0.197079	13496.929687
10075.388637	0.083936	0.197079	13570.289062
10075.389639	0.083899	0.197079	13654.355469
10075.390574	0.083979	0.197079	13732.875977
10076.599820	0.914725	0.111618	453.703766
10076.600703	1.318440	0.111618	1617.886108
10076.601630	1.324962	0.111618	2846.125977
10076.602690	1.293127	0.111618	4216.840820
10076.603642	1.263014	0.111618	5419.229980
10076.604512	1.236068	0.111618	6494.609375
10076.605558	1.205054	0.111618	7755.095703
10076.606590	1.176031	0.111618	8968.759766
10076.607492	1.151276	0.111618	10007.210937
10076.608461	1.128336	0.111618	11100.568359
10076.609523	1.105353	0.111618	12274.453125
10076.610461	0.719821	0.111618	12949.644531
10076.611323	0.104037	0.111618	13039.324219
10076.612407	0.083881	0.111618	13130.250977
10076.613393	0.083877	0.111618	13212.954102
10076.614274	0.083958	0.111618	13286.920898
10076.615257	0.084042	0.111618	13369.534180
10076.616301	0.083928	0.111618	13457.155273
10076.617207	0.083972	0.111618	13533.234375
10076.618069	0.083892	0.111618	13605.548828
10076.619153	0.083972	0.111618	13696.574219
10076.620150	0.083862	0.111618	13780.184570
10077.443566	0.872567	0.197683	408.361420
10077.444474	1.317228	0.197683	1604.404175
10077.445348	1.326555	0.197683	2763.813477
10077.446234	1.299954	0.197683	3915.572266
10077.447213	1.268936	0.197683	5157.860352
10077.448164	1.240008	0.197683	6337.108398
10077.449052	1.213129	0.197683	7414.366699
10077.449969	1.186985	0.197683	8502.832031
10077.450941	1.160442	0.197683	9630.781250
10077.451876	1.135378	0.197683	10692.360352
10077.452745	1.118137	0.197683	11664.021484
10077.453683	1.091133	0.197683	12687.503906
10077.454628	0.293987	0.197683	12965.321289
10077.455552	0.084803	0.197683	13043.679687
10077.456430	0.083892	0.197683	13117.336914
10077.457388	0.083917	0.197683	13197.729492
10077.458341	0.083936	0.197683	13277.719727
10077.459237	0.083943	0.197683	13352.932617
10077.460154	0.083855	0.197683	13429.828125
10077.461115	0.083932	0.197683	13510.486328
10077.462035	0.083866	0.197683	13587.642578
10077.462898	0.083899	0.197683	13660.046875
10078.668213	0.849961	0.110502	356.133636
10078.669272	1.321897	0.110502	1756.022461
10078.670205	1.322692	0.110502	2990.093750
10078.671094	1.295511	0.110502	4141.803711
10078.672067	1.264900	0.110502	5372.551270
10078.673095	1.233322	0.110502	6640.405762
10078.673992	1.206372	0.110502	7722.521484
10078.674861	1.181063	0.110502	8748.865234
10078.675941	1.152371	0.110502	9993.425781
10078.676869	1.129105	0.110502	11041.235352
10078.677744	1.111648	0.110502	12013.927734
10078.678730	0.879250	0.110502	12880.869141
10078.679754	0.117081	0.110502	13000.760742
10078.680640	0.083807	0.110502	13075.013672
10078.681497	0.083954	0.110502	13146.961914
10078.682563	0.084005	0.110502	13236.511719
10078.683486	0.083954	0.110502	13314.000977
10078.684363	0.083976	0.110502	13387.647461
10078.685308	0.083884	0.110502	13466.917969
10078.686345	0.083888	0.110502	13553.910156
10078.687233	0.083936	0.110502	13628.445312
10078.688097	0.083936	0.110502	13700.965820
10079.517172	0.896151	0.194267	422.983337
10079.518068	1.317433	0.194267	1603.403320
10079.518981	1.325834	0.194267	2813.889648
10079.519863	1.299064	0.194267	3959.663818
10079.520853	1.268463	0.194267	5215.442383
10079.521784	1.239668	0.194267	6369.573242
10079.522651	1.213213	0.194267	7421.428711
10079.523604	1.185831	0.194267	8551.526367
10079.524553	1.159438	0.194267	9651.833984
10079.525489	1.134946	0.194267	10714.143555
10079.526357	1.117749	0.194267	11684.349609
10079.527305	1.077711	0.194267	12706.019531
10079.528270	0.274175	0.194267	12970.598633
10079.529162	0.084613	0.194267	13046.073242
10079.530073	0.083851	0.194267	13122.461914
10079.531035	0.083947	0.194267	13203.218750
10079.531961	0.083899	0.194267	13280.909180
10079.532837	0.083947	0.194267	13354.446289
10079.533786	0.083837	0.194267	13434.006836
10079.534735	0.083943	0.194267	13513.668945
10079.535660	0.083910	0.194267	13591.285156
10079.536523	0.083972	0.194267	13663.752930
10080.735791	0.945666	0.119844	514.442566
10080.736712	1.323688	0.119844	1733.558838
10080.737634	1.323508	0.119844	2953.833496
10080.738514	1.295826	0.119844	4094.160645
10080.739557	1.263549	0.119844	5412.041992
10080.740451	1.236021	0.119844	6517.044434
10080.741331	1.209738	0.119844	7581.613281
10080.742299	1.182524	0.119844	8726.296875
10080.743266	1.155721	0.119844	9843.879883
10080.744191	1.131786	0.119844	10890.782227
10080.745060	1.114863	0.119844	11859.598633
10080.746110	0.966731	0.119844	12874.666016
10080.746998	0.170563	0.119844	13026.125977
10080.747863	0.083921	0.119844	13098.717773
10080.748789	0.083914	0.119844	13176.421875
10080.749773	0.083983	0.119844	13259.061523
10080.750676	0.083888	0.119844	13334.812500
10080.751565	0.083925	0.119844	13409.421875
10080.752561	0.083969	0.119844	13493.054687
10080.753481	0.083884	0.119844	13570.228516
10080.754397	0.083987	0.119844	13647.160156
10080.755263	0.083958	0.119844	13719.867187
10081.590768	0.912488	0.190883	437.081665
10081.591697	1.320212	0.190883	1663.559082
10081.592629	1.324552	0.190883	2898.041504
10081.593504	1.297419	0.190883	4033.283447
10081.594489	1.266984	0.190883	5281.262207
10081.595438	1.237841	0.190883	6455.972656
10081.596332	1.210789	0.190883	7538.417969
10081.597220	1.185088	0.190883	8590.775391
10081.598171	1.158655	0.190883	9692.656250
10081.599103	1.134437	0.190883	10749.952148
10081.599968	1.117339	0.190883	11716.450195
10081.600917	1.072167	0.190883	12733.936523
10081.601876	0.262738	0.190883	12985.902344
10081.602773	0.084485	0.190883	13061.685547
10081.603688	0.083866	0.190883	13138.422852
10081.604640	0.083877	0.190883	13218.273437
10081.605560	0.083884	0.190883	13295.447266
10081.606441	0.083903	0.190883	13369.365234
10081.607394	0.083855	0.190883	13449.279297
10081.608335	0.083862	0.190883	13528.193359
10081.609258	0.083877	0.190883	13605.611328
10081.610120	0.083936	0.190883	13677.963867
10082.805176	0.846497	0.114603	355.528564
10082.806152	1.318876	0.114603	1642.751343
10082.807058	1.325284	0.114603	2843.458984
10082.807983	1.297646	0.114603	4043.781738
10082.808852	1.269115	0.114603	5146.642578
10082.809851	1.239353	0.114603	6384.756348
10082.810787	1.211356	0.114603	7518.585937
10082.811671	1.186033	0.114603	8567.039062
10082.812615	1.160427	0.114603	9662.482422
10082.813570	1.135254	0.114603	10746.650391
10082.814495	1.116965	0.114603	11779.843750
10082.815365	1.091393	0.114603	12729.355469
10082.816303	0.277950	0.114603	12990.073242
10082.817255	0.084613	0.114603	13070.625000
10082.818145	0.083928	0.114603	13145.321289
10082.819348	0.083939	0.114603	13246.299805
10082.820250	0.083994	0.114603	13322.062500
10082.821166	0.083961	0.114603	13398.970703
10082.822043	0.083950	0.114603	13472.594727
10082.823041	0.083914	0.114603	13556.340820
10082.823957	0.083800	0.114603	13633.101562
10082.824847	0.084001	0.114603	13707.863281
10083.665414	0.908335	0.188305	454.167480
10083.666341	1.320824	0.188305	1678.571411
10083.667203	1.325325	0.188305	2821.001221
10083.668258	1.293300	0.188305	4185.432129
10083.669275	1.261490	0.188305	5468.368164
10083.670172	1.234043	0.188305	6575.304687
10083.671155	1.205017	0.188305	7759.836426
10083.672220	1.174838	0.188305	9011.039062
10083.673144	1.149609	0.188305	10073.278320
10083.674018	1.127955	0.188305	11059.111328
10083.675114	1.105009	0.188305	12270.201172
10083.676124	0.634797	0.188305	12911.346680
10083.677018	0.094244	0.188305	12995.601562
10083.678006	0.083833	0.188305	13078.428711
10083.679064	0.083844	0.188305	13167.135742
10083.679952	0.083877	0.188305	13241.618164
10083.680836	0.083954	0.188305	13315.833008
10083.681928	0.084034	0.188305	13407.598633
10083.682890	0.083950	0.188305	13488.358398
10083.683754	0.083903	0.188305	13560.850586
10083.684799	0.084005	0.188305	13648.635742
10083.685822	0.083833	0.188305	13734.396484
10084.871614	0.853169	0.126503	365.156311
10084.872480	1.310526	0.126503	1500.072021
10084.873466	1.326020	0.126503	2807.528320
10084.874389	1.298661	0.126503	4006.192383
10084.875276	1.270302	0.126503	5132.949707
10084.876185	1.242762	0.126503	6262.620605
10084.877132	1.214095	0.126503	7412.369141
10084.878073	1.186652	0.126503	8529.007812
10084.878954	1.162233	0.126503	9552.934570
10084.879889	1.137202	0.126503	10616.218750
10084.880830	1.118108	0.126503	11668.358398
10084.881760	1.095286	0.126503	12686.973633
10084.882637	0.368558	0.126503	13010.199219
10084.883595	0.085741	0.126503	13092.338867
10084.884518	0.083855	0.126503	13169.737305
10084.885397	0.083972	0.126503	13243.548828
10084.886333	0.083958	0.126503	13322.132812
10084.887287	0.083936	0.126503	13402.207031
10084.888211	0.083998	0.126503	13479.821289
10084.889077	0.083873	0.126503	13552.455078
10084.890051	0.083987	0.126503	13634.257812
10084.891001	0.083888	0.126503	13713.951172
10085.738012	0.923145	0.187689	469.880554
10085.739032	1.326116	0.187689	1822.518555
10085.739913	1.322695	0.187689	2987.813232
10085.740891	1.292853	0.187689	4252.223145
10085.741959	1.258868	0.187689	5596.694824
10085.742882	1.230428	0.187689	6732.380371
10085.743744	1.204076	0.187689	7770.293945
10085.744803	1.174343	0.187689	9013.923828
10085.745806	1.147233	0.187689	10164.597656
10085.746701	1.126414	0.187689	11172.738281
10085.747681	1.105367	0.187689	12255.998047
10085.748746	0.605676	0.187689	12901.042969
10085.749650	0.091604	0.187689	12983.852539
10085.750514	0.083888	0.187689	13056.332031
10085.751623	0.083895	0.187689	13149.372070
10085.752571	0.083877	0.187689	13228.887695
10085.753454	0.083903	0.187689	13302.973633
10085.754455	0.083969	0.187689	13387.026367
10085.755506	0.084001	0.187689	13475.311523
10085.756393	0.083888	0.187689	13549.719727
10085.757257	0.083910	0.187689	13622.217773
10085.758324	0.084078	0.187689	13711.929687
10086.942142	0.852228	0.120114	363.901245
10086.943026	1.310251	0.120114	1522.163452
10086.943988	1.325698	0.120114	2797.485352
10086.944946	1.297515	0.120114	4040.504395
10086.945843	1.269045	0.120114	5178.837891
10086.946766	1.240444	0.120114	6323.768066
10086.947747	1.211528	0.120114	7512.277344
10086.948670	1.184886	0.120114	8605.927734
10086.949541	1.160449	0.120114	9616.678711
10086.950514	1.135444	0.120114	10721.465820
10086.951431	1.116914	0.120114	11745.675781
10086.952340	1.086592	0.120114	12733.387695
10086.953224	0.311217	0.120114	13008.503906
10086.954204	0.084679	0.120114	13091.489258
10086.955133	0.083895	0.120114	13169.427734
10086.956002	0.083954	0.120114	13242.383789
10086.956971	0.083862	0.120114	13323.646484
10086.957925	0.083892	0.120114	13403.678711
10086.958812	0.083983	0.120114	13478.171875
10086.959699	0.083859	0.120114	13552.554687
10086.960642	0.083899	0.120114	13631.670898
10086.961592	0.083859	0.120114	13711.336914
10087.812571	0.877394	0.178464	390.440247
10087.813447	1.313240	0.178464	1540.838379
10087.814311	1.327613	0.178464	2687.896484
10087.815376	1.297339	0.178464	4069.562500
10087.816261	1.268734	0.178464	5192.392578
10087.817128	1.241785	0.178464	6269.020020
10087.818054	1.213773	0.178464	7392.974121
10087.819059	1.185128	0.178464	8584.027344
10087.819972	1.159753	0.178464	9642.881836
10087.820867	1.136085	0.178464	10659.677734
10087.821875	1.116328	0.178464	11784.936523
10087.822803	1.059917	0.178464	12768.539062
10087.823738	0.232954	0.178464	12986.351562
10087.824603	0.084510	0.178464	13059.453125
10087.825653	0.083862	0.178464	13147.508789
10087.826537	0.083983	0.178464	13221.750000
10087.827407	0.083943	0.178464	13294.780273
10087.828418	0.083914	0.178464	13379.617187
10087.829319	0.083932	0.178464	13455.240234
10087.830235	0.083950	0.178464	13532.138672
10087.831113	0.083943	0.178464	13605.840820
10087.832146	0.083925	0.178464	13692.535156
10089.011740	0.925444	0.127929	471.976624
10089.012645	1.321274	0.127929	1667.729980
10089.013508	1.324874	0.127929	2811.096436
10089.014620	1.292274	0.127929	4248.105469
10089.015593	1.261403	0.127929	5475.450195
10089.016481	1.234453	0.127929	6571.644531
10089.017485	1.204658	0.127929	7781.121094
10089.018544	1.174940	0.127929	9025.382812
10089.019439	1.150316	0.127929	10054.916016
10089.020325	1.128270	0.127929	11054.563477
10089.021438	1.105082	0.127929	12284.519531
10089.022394	0.688704	0.127929	12942.919922
10089.023258	0.100616	0.127929	13029.852539
10089.024306	0.083987	0.127929	13117.871094
10089.025316	0.083866	0.127929	13202.576172
10089.026203	0.083870	0.127929	13276.968750
10089.027158	0.083939	0.127929	13357.130859
10089.028204	0.084049	0.127929	13445.045898
10089.029144	0.083892	0.127929	13523.904297
10089.030005	0.083958	0.127929	13596.191406
10089.031064	0.084056	0.127929	13685.207031
10089.032075	0.083932	0.127929	13770.062500
